#K-Path(1/A)   Spin-Up(eV)   Spin-down(eV)
# NKPTS & NBANDS: 105  38
# Band-Index:    1
   0.00000    -14.677966    -14.677967
   0.03351    -14.674888    -14.674889
   0.06701    -14.665641    -14.665641
   0.10052    -14.650264    -14.650265
   0.13403    -14.628822    -14.628822
   0.16753    -14.601416    -14.601417
   0.20104    -14.568159    -14.568160
   0.23454    -14.529215    -14.529215
   0.26805    -14.484734    -14.484735
   0.30156    -14.434929    -14.434929
   0.33506    -14.380025    -14.380026
   0.36857    -14.320281    -14.320282
   0.40208    -14.255998    -14.255999
   0.43558    -14.187527    -14.187528
   0.46909    -14.115216    -14.115217
   0.50259    -14.039467    -14.039468
   0.53610    -13.960728    -13.960729
   0.56961    -13.879506    -13.879506
   0.60311    -13.796332    -13.796333
   0.63662    -13.711803    -13.711804
   0.67013    -13.626541    -13.626541
   0.70363    -13.541248    -13.541248
   0.73714    -13.456665    -13.456666
   0.77064    -13.373592    -13.373592
   0.80415    -13.292877    -13.292878
   0.83766    -13.215441    -13.215442
   0.87116    -13.142184    -13.142185
   0.90467    -13.074067    -13.074068
   0.93818    -13.012042    -13.012043
   0.97168    -12.957058    -12.957059
   1.00519    -12.909996    -12.909996
   1.03869    -12.871648    -12.871649
   1.07220    -12.842693    -12.842693
   1.10571    -12.823662    -12.823662
   1.13921    -12.814994    -12.814995
   1.13921    -12.814994    -12.814995
   1.15856    -12.814530    -12.814531
   1.17790    -12.813146    -12.813146
   1.19725    -12.810847    -12.810848
   1.21659    -12.807646    -12.807647
   1.23594    -12.803558    -12.803559
   1.25528    -12.798607    -12.798608
   1.27463    -12.792821    -12.792822
   1.29397    -12.786229    -12.786230
   1.31332    -12.778869    -12.778869
   1.33266    -12.770782    -12.770782
   1.35201    -12.762015    -12.762016
   1.37135    -12.752619    -12.752620
   1.39070    -12.742649    -12.742649
   1.41004    -12.732164    -12.732165
   1.42939    -12.721233    -12.721233
   1.44873    -12.709921    -12.709922
   1.46807    -12.698307    -12.698308
   1.48742    -12.686470    -12.686470
   1.50676    -12.674493    -12.674493
   1.52611    -12.662464    -12.662464
   1.54545    -12.650474    -12.650475
   1.56480    -12.638620    -12.638620
   1.58414    -12.627004    -12.627004
   1.60349    -12.615724    -12.615725
   1.62283    -12.604897    -12.604898
   1.64218    -12.594626    -12.594627
   1.66152    -12.585028    -12.585028
   1.68087    -12.576219    -12.576219
   1.70021    -12.568312    -12.568313
   1.71956    -12.561428    -12.561428
   1.73890    -12.555684    -12.555685
   1.75825    -12.551201    -12.551202
   1.77759    -12.548098    -12.548098
   1.79694    -12.546529    -12.546530
   1.79694    -12.546529    -12.546530
   1.83563    -12.553149    -12.553149
   1.87432    -12.567280    -12.567280
   1.91301    -12.589424    -12.589424
   1.95170    -12.620035    -12.620036
   1.99039    -12.659380    -12.659381
   2.02908    -12.707514    -12.707514
   2.06776    -12.764278    -12.764279
   2.10645    -12.829301    -12.829302
   2.14514    -12.902019    -12.902019
   2.18383    -12.981699    -12.981700
   2.22252    -13.067467    -13.067467
   2.26121    -13.158329    -13.158330
   2.29990    -13.253270    -13.253270
   2.33859    -13.351245    -13.351246
   2.37728    -13.451190    -13.451190
   2.41597    -13.552063    -13.552063
   2.45466    -13.652873    -13.652874
   2.49335    -13.752679    -13.752679
   2.53204    -13.850602    -13.850602
   2.57073    -13.945827    -13.945828
   2.60942    -14.037593    -14.037594
   2.64811    -14.125192    -14.125193
   2.68680    -14.208001    -14.208002
   2.72549    -14.285451    -14.285451
   2.76418    -14.357037    -14.357038
   2.80287    -14.422282    -14.422282
   2.84156    -14.480780    -14.480781
   2.88025    -14.532187    -14.532187
   2.91894    -14.576192    -14.576193
   2.95763    -14.612558    -14.612559
   2.99632    -14.641061    -14.641061
   3.03501    -14.661535    -14.661535
   3.07370    -14.673860    -14.673861
   3.11239    -14.677966    -14.677967
 
# Band-Index:    2
   3.11239    -14.578634    -14.578635
   3.07370    -14.574552    -14.574553
   3.03501    -14.562332    -14.562332
   2.99632    -14.542046    -14.542047
   2.95763    -14.513817    -14.513818
   2.91894    -14.477813    -14.477814
   2.88025    -14.434248    -14.434248
   2.84156    -14.383404    -14.383405
   2.80287    -14.325589    -14.325590
   2.76418    -14.261175    -14.261175
   2.72549    -14.190584    -14.190584
   2.68680    -14.114291    -14.114291
   2.64811    -14.032838    -14.032838
   2.60942    -13.946821    -13.946822
   2.57073    -13.856905    -13.856906
   2.53204    -13.763784    -13.763785
   2.49335    -13.668245    -13.668246
   2.45466    -13.571131    -13.571132
   2.41597    -13.473335    -13.473336
   2.37728    -13.375815    -13.375816
   2.33859    -13.279586    -13.279586
   2.29990    -13.185668    -13.185669
   2.26121    -13.095098    -13.095098
   2.22252    -13.008913    -13.008914
   2.18383    -12.928124    -12.928124
   2.14514    -12.853639    -12.853640
   2.10645    -12.786280    -12.786281
   2.06776    -12.726719    -12.726720
   2.02908    -12.675480    -12.675480
   1.99039    -12.632873    -12.632874
   1.95170    -12.599022    -12.599023
   1.91301    -12.573861    -12.573861
   1.87432    -12.557078    -12.557079
   1.83563    -12.548181    -12.548182
   1.79694    -12.546439    -12.546440
   1.79694    -12.546439    -12.546440
   1.77759    -12.547913    -12.547913
   1.75825    -12.551012    -12.551013
   1.73890    -12.555493    -12.555494
   1.71956    -12.561235    -12.561236
   1.70021    -12.568118    -12.568119
   1.68087    -12.576024    -12.576025
   1.66152    -12.584832    -12.584833
   1.64218    -12.594430    -12.594431
   1.62283    -12.604700    -12.604701
   1.60349    -12.615527    -12.615528
   1.58414    -12.626806    -12.626807
   1.56480    -12.638422    -12.638423
   1.54545    -12.650276    -12.650277
   1.52611    -12.662265    -12.662266
   1.50676    -12.674294    -12.674295
   1.48742    -12.686271    -12.686272
   1.46807    -12.698108    -12.698109
   1.44873    -12.709722    -12.709723
   1.42939    -12.721034    -12.721034
   1.41004    -12.731965    -12.731966
   1.39070    -12.742450    -12.742450
   1.37135    -12.752420    -12.752420
   1.35201    -12.761816    -12.761817
   1.33266    -12.770582    -12.770583
   1.31332    -12.778670    -12.778670
   1.29397    -12.786030    -12.786031
   1.27463    -12.792622    -12.792622
   1.25528    -12.798408    -12.798409
   1.23594    -12.803359    -12.803360
   1.21659    -12.807447    -12.807447
   1.19725    -12.810648    -12.810649
   1.17790    -12.812947    -12.812947
   1.15856    -12.814331    -12.814331
   1.13921    -12.814795    -12.814795
   1.13921    -12.814795    -12.814795
   1.10571    -12.816514    -12.816515
   1.07220    -12.828444    -12.828444
   1.03869    -12.850395    -12.850396
   1.00519    -12.881913    -12.881914
   0.97168    -12.922351    -12.922352
   0.93818    -12.970979    -12.970979
   0.90467    -13.026973    -13.026974
   0.87116    -13.089434    -13.089435
   0.83766    -13.157434    -13.157435
   0.80415    -13.230023    -13.230024
   0.77064    -13.306283    -13.306283
   0.73714    -13.385299    -13.385300
   0.70363    -13.466229    -13.466230
   0.67013    -13.548245    -13.548246
   0.63662    -13.630570    -13.630570
   0.60311    -13.712487    -13.712487
   0.56961    -13.793336    -13.793336
   0.53610    -13.872504    -13.872504
   0.50259    -13.949424    -13.949425
   0.46909    -14.023603    -14.023604
   0.43558    -14.094557    -14.094557
   0.40208    -14.161861    -14.161862
   0.36857    -14.225123    -14.225123
   0.33506    -14.283994    -14.283994
   0.30156    -14.338162    -14.338163
   0.26805    -14.387353    -14.387353
   0.23454    -14.431325    -14.431325
   0.20104    -14.469867    -14.469867
   0.16753    -14.502785    -14.502786
   0.13403    -14.529926    -14.529926
   0.10052    -14.551163    -14.551163
   0.06701    -14.566401    -14.566401
   0.03351    -14.575572    -14.575573
   0.00000    -14.578634    -14.578635
 
# Band-Index:    3
   0.00000    -14.578459    -14.578460
   0.03351    -14.575398    -14.575398
   0.06701    -14.566226    -14.566227
   0.10052    -14.550988    -14.550988
   0.13403    -14.529750    -14.529750
   0.16753    -14.502605    -14.502606
   0.20104    -14.469675    -14.469676
   0.23454    -14.431111    -14.431111
   0.26805    -14.387096    -14.387096
   0.30156    -14.337837    -14.337838
   0.33506    -14.283568    -14.283569
   0.36857    -14.224566    -14.224567
   0.40208    -14.161131    -14.161132
   0.43558    -14.093610    -14.093610
   0.46909    -14.022386    -14.022387
   0.50259    -13.947874    -13.947874
   0.53610    -13.870548    -13.870549
   0.56961    -13.790894    -13.790894
   0.60311    -13.709460    -13.709460
   0.63662    -13.626849    -13.626850
   0.67013    -13.543700    -13.543700
   0.70363    -13.460709    -13.460709
   0.73714    -13.378626    -13.378626
   0.77064    -13.298265    -13.298265
   0.80415    -13.220448    -13.220448
   0.83766    -13.146061    -13.146062
   0.87116    -13.076005    -13.076006
   0.90467    -13.011202    -13.011202
   0.93818    -12.952572    -12.952573
   0.97168    -12.901045    -12.901045
   1.00519    -12.857452    -12.857452
   1.03869    -12.822575    -12.822576
   1.07220    -12.797109    -12.797110
   1.10571    -12.781588    -12.781589
   1.13921    -12.776374    -12.776375
   1.13921    -12.776374    -12.776375
   1.15856    -12.775935    -12.775935
   1.17790    -12.774629    -12.774630
   1.19725    -12.772462    -12.772462
   1.21659    -12.769446    -12.769446
   1.23594    -12.765600    -12.765600
   1.25528    -12.760942    -12.760942
   1.27463    -12.755504    -12.755505
   1.29397    -12.749317    -12.749317
   1.31332    -12.742419    -12.742419
   1.33266    -12.734858    -12.734858
   1.35201    -12.726680    -12.726680
   1.37135    -12.717937    -12.717938
   1.39070    -12.708687    -12.708688
   1.41004    -12.698990    -12.698991
   1.42939    -12.688915    -12.688916
   1.44873    -12.678536    -12.678537
   1.46807    -12.667928    -12.667929
   1.48742    -12.657177    -12.657178
   1.50676    -12.646366    -12.646367
   1.52611    -12.635588    -12.635588
   1.54545    -12.624933    -12.624933
   1.56480    -12.614501    -12.614501
   1.58414    -12.604398    -12.604399
   1.60349    -12.594725    -12.594726
   1.62283    -12.585593    -12.585594
   1.64218    -12.577111    -12.577111
   1.66152    -12.569390    -12.569390
   1.68087    -12.562548    -12.562548
   1.70021    -12.556696    -12.556696
   1.71956    -12.551955    -12.551956
   1.73890    -12.548443    -12.548443
   1.75825    -12.546275    -12.546275
   1.77759    -12.545552    -12.545553
   1.79694    -12.546212    -12.546213
   1.79694    -12.546212    -12.546213
   1.83563    -12.547994    -12.547994
   1.87432    -12.556896    -12.556897
   1.91301    -12.573683    -12.573684
   1.95170    -12.598849    -12.598850
   1.99039    -12.632703    -12.632704
   2.02908    -12.675313    -12.675313
   2.06776    -12.726554    -12.726555
   2.10645    -12.786116    -12.786116
   2.14514    -12.853475    -12.853476
   2.18383    -12.927960    -12.927960
   2.22252    -13.008749    -13.008749
   2.26121    -13.094933    -13.094933
   2.29990    -13.185502    -13.185503
   2.33859    -13.279419    -13.279420
   2.37728    -13.375648    -13.375648
   2.41597    -13.473167    -13.473168
   2.45466    -13.570962    -13.570963
   2.49335    -13.668076    -13.668076
   2.53204    -13.763614    -13.763615
   2.57073    -13.856734    -13.856735
   2.60942    -13.946650    -13.946650
   2.64811    -14.032666    -14.032666
   2.68680    -14.114118    -14.114119
   2.72549    -14.190411    -14.190411
   2.76418    -14.261002    -14.261002
   2.80287    -14.325416    -14.325416
   2.84156    -14.383230    -14.383231
   2.88025    -14.434074    -14.434074
   2.91894    -14.477639    -14.477639
   2.95763    -14.513643    -14.513644
   2.99632    -14.541872    -14.541872
   3.03501    -14.562157    -14.562158
   3.07370    -14.574378    -14.574378
   3.11239    -14.578459    -14.578460
 
# Band-Index:    4
   3.11239    -13.452509    -13.452509
   3.07370    -13.450462    -13.450462
   3.03501    -13.444333    -13.444334
   2.99632    -13.434160    -13.434161
   2.95763    -13.420006    -13.420006
   2.91894    -13.401959    -13.401959
   2.88025    -13.380128    -13.380129
   2.84156    -13.354658    -13.354659
   2.80287    -13.325706    -13.325706
   2.76418    -13.293459    -13.293459
   2.72549    -13.258130    -13.258131
   2.68680    -13.219959    -13.219959
   2.64811    -13.179207    -13.179207
   2.60942    -13.136173    -13.136174
   2.57073    -13.091177    -13.091178
   2.53204    -13.044538    -13.044539
   2.49335    -12.996626    -12.996626
   2.45466    -12.947829    -12.947829
   2.41597    -12.898555    -12.898556
   2.37728    -12.849238    -12.849238
   2.33859    -12.800334    -12.800334
   2.29990    -12.752305    -12.752305
   2.26121    -12.705611    -12.705612
   2.22252    -12.660740    -12.660740
   2.18383    -12.618168    -12.618168
   2.14514    -12.578352    -12.578352
   2.10645    -12.541726    -12.541726
   2.06776    -12.508679    -12.508679
   2.02908    -12.479527    -12.479528
   1.99039    -12.454514    -12.454514
   1.95170    -12.433792    -12.433792
   1.91301    -12.417427    -12.417428
   1.87432    -12.405391    -12.405392
   1.83563    -12.397586    -12.397587
   1.79694    -12.393861    -12.393862
   1.79694    -12.393861    -12.393862
   1.77759    -12.395997    -12.395998
   1.75825    -12.399097    -12.399098
   1.73890    -12.402997    -12.402998
   1.71956    -12.407640    -12.407641
   1.70021    -12.412965    -12.412965
   1.68087    -12.418912    -12.418913
   1.66152    -12.425420    -12.425420
   1.64218    -12.432425    -12.432426
   1.62283    -12.439857    -12.439858
   1.60349    -12.447651    -12.447652
   1.58414    -12.455747    -12.455747
   1.56480    -12.464070    -12.464070
   1.54545    -12.472549    -12.472550
   1.52611    -12.481128    -12.481129
   1.50676    -12.489734    -12.489735
   1.48742    -12.498307    -12.498307
   1.46807    -12.506783    -12.506784
   1.44873    -12.515108    -12.515109
   1.42939    -12.523223    -12.523224
   1.41004    -12.531075    -12.531076
   1.39070    -12.538616    -12.538616
   1.37135    -12.545791    -12.545791
   1.35201    -12.552562    -12.552562
   1.33266    -12.558883    -12.558884
   1.31332    -12.564723    -12.564724
   1.29397    -12.570041    -12.570042
   1.27463    -12.574806    -12.574806
   1.25528    -12.578989    -12.578989
   1.23594    -12.582570    -12.582570
   1.21659    -12.585524    -12.585524
   1.19725    -12.587838    -12.587839
   1.17790    -12.589502    -12.589503
   1.15856    -12.590505    -12.590505
   1.13921    -12.590840    -12.590841
   1.13921    -12.590840    -12.590841
   1.10571    -12.593008    -12.593009
   1.07220    -12.599503    -12.599503
   1.03869    -12.610281    -12.610282
   1.00519    -12.625254    -12.625254
   0.97168    -12.644261    -12.644261
   0.93818    -12.667061    -12.667061
   0.90467    -12.693340    -12.693341
   0.87116    -12.722750    -12.722750
   0.83766    -12.754904    -12.754905
   0.80415    -12.789398    -12.789398
   0.77064    -12.825815    -12.825815
   0.73714    -12.863741    -12.863742
   0.70363    -12.902777    -12.902778
   0.67013    -12.942509    -12.942510
   0.63662    -12.982564    -12.982565
   0.60311    -13.022573    -13.022574
   0.56961    -13.062204    -13.062205
   0.53610    -13.101139    -13.101139
   0.50259    -13.139075    -13.139076
   0.46909    -13.175759    -13.175759
   0.43558    -13.210927    -13.210928
   0.40208    -13.244352    -13.244352
   0.36857    -13.275822    -13.275823
   0.33506    -13.305153    -13.305154
   0.30156    -13.332175    -13.332175
   0.26805    -13.356740    -13.356740
   0.23454    -13.378719    -13.378719
   0.20104    -13.398000    -13.398000
   0.16753    -13.414483    -13.414483
   0.13403    -13.428083    -13.428084
   0.10052    -13.438731    -13.438732
   0.06701    -13.446374    -13.446374
   0.03351    -13.450974    -13.450974
   0.00000    -13.452509    -13.452509
 
# Band-Index:    5
   0.00000    -13.452339    -13.452340
   0.03351    -13.450804    -13.450805
   0.06701    -13.446204    -13.446205
   0.10052    -13.438561    -13.438562
   0.13403    -13.427909    -13.427909
   0.16753    -13.414297    -13.414297
   0.20104    -13.397783    -13.397783
   0.23454    -13.378439    -13.378440
   0.26805    -13.356363    -13.356364
   0.30156    -13.331659    -13.331660
   0.33506    -13.304452    -13.304452
   0.36857    -13.274888    -13.274888
   0.40208    -13.243128    -13.243129
   0.43558    -13.209350    -13.209351
   0.46909    -13.173755    -13.173756
   0.50259    -13.136568    -13.136568
   0.53610    -13.098029    -13.098029
   0.56961    -13.058383    -13.058384
   0.60311    -13.017927    -13.017927
   0.63662    -12.976960    -12.976960
   0.67013    -12.935798    -12.935799
   0.70363    -12.894793    -12.894794
   0.73714    -12.854305    -12.854306
   0.77064    -12.814727    -12.814728
   0.80415    -12.776440    -12.776441
   0.83766    -12.739836    -12.739837
   0.87116    -12.705321    -12.705321
   0.90467    -12.673289    -12.673290
   0.93818    -12.644122    -12.644123
   0.97168    -12.618173    -12.618173
   1.00519    -12.595780    -12.595780
   1.03869    -12.577216    -12.577217
   1.07220    -12.562686    -12.562687
   1.10571    -12.552347    -12.552348
   1.13921    -12.546374    -12.546374
   1.13921    -12.546374    -12.546374
   1.15856    -12.546070    -12.546071
   1.17790    -12.545166    -12.545166
   1.19725    -12.543665    -12.543666
   1.21659    -12.541578    -12.541579
   1.23594    -12.538920    -12.538920
   1.25528    -12.535704    -12.535705
   1.27463    -12.531954    -12.531954
   1.29397    -12.527694    -12.527695
   1.31332    -12.522951    -12.522952
   1.33266    -12.517759    -12.517760
   1.35201    -12.512161    -12.512161
   1.37135    -12.506188    -12.506188
   1.39070    -12.499885    -12.499886
   1.41004    -12.493303    -12.493303
   1.42939    -12.486487    -12.486487
   1.44873    -12.479490    -12.479491
   1.46807    -12.472370    -12.472371
   1.48742    -12.465188    -12.465188
   1.50676    -12.457996    -12.457997
   1.52611    -12.450862    -12.450863
   1.54545    -12.443851    -12.443852
   1.56480    -12.437031    -12.437032
   1.58414    -12.430465    -12.430465
   1.60349    -12.424221    -12.424222
   1.62283    -12.418374    -12.418375
   1.64218    -12.412984    -12.412985
   1.66152    -12.408121    -12.408121
   1.68087    -12.403848    -12.403849
   1.70021    -12.400226    -12.400227
   1.71956    -12.397313    -12.397314
   1.73890    -12.395165    -12.395166
   1.75825    -12.393834    -12.393835
   1.77759    -12.393371    -12.393372
   1.79694    -12.393770    -12.393770
   1.79694    -12.393770    -12.393770
   1.83563    -12.397406    -12.397406
   1.87432    -12.405213    -12.405214
   1.91301    -12.417254    -12.417254
   1.95170    -12.433622    -12.433623
   1.99039    -12.454347    -12.454348
   2.02908    -12.479363    -12.479364
   2.06776    -12.508516    -12.508517
   2.10645    -12.541564    -12.541565
   2.14514    -12.578190    -12.578191
   2.18383    -12.618006    -12.618007
   2.22252    -12.660578    -12.660578
   2.26121    -12.705449    -12.705449
   2.29990    -12.752141    -12.752142
   2.33859    -12.800170    -12.800170
   2.37728    -12.849073    -12.849074
   2.41597    -12.898390    -12.898390
   2.45466    -12.947663    -12.947663
   2.49335    -12.996459    -12.996460
   2.53204    -13.044371    -13.044372
   2.57073    -13.091010    -13.091010
   2.60942    -13.136005    -13.136006
   2.64811    -13.179039    -13.179039
   2.68680    -13.219790    -13.219791
   2.72549    -13.257962    -13.257962
   2.76418    -13.293290    -13.293290
   2.80287    -13.325537    -13.325537
   2.84156    -13.354489    -13.354489
   2.88025    -13.379959    -13.379959
   2.91894    -13.401789    -13.401790
   2.95763    -13.419836    -13.419836
   2.99632    -13.433991    -13.433991
   3.03501    -13.444164    -13.444164
   3.07370    -13.450292    -13.450292
   3.11239    -13.452339    -13.452340
 
# Band-Index:    6
   3.11239    -13.283862    -13.283862
   3.07370    -13.282033    -13.282034
   3.03501    -13.276556    -13.276557
   2.99632    -13.267467    -13.267468
   2.95763    -13.254823    -13.254823
   2.91894    -13.238709    -13.238709
   2.88025    -13.219233    -13.219234
   2.84156    -13.196528    -13.196529
   2.80287    -13.170745    -13.170745
   2.76418    -13.142065    -13.142066
   2.72549    -13.110690    -13.110691
   2.68680    -13.076844    -13.076844
   2.64811    -13.040769    -13.040770
   2.60942    -13.002752    -13.002753
   2.57073    -12.963082    -12.963083
   2.53204    -12.922073    -12.922073
   2.49335    -12.880069    -12.880070
   2.45466    -12.837429    -12.837429
   2.41597    -12.794528    -12.794528
   2.37728    -12.751789    -12.751790
   2.33859    -12.709618    -12.709618
   2.29990    -12.668433    -12.668433
   2.26121    -12.628662    -12.628663
   2.22252    -12.590760    -12.590760
   2.18383    -12.555143    -12.555143
   2.14514    -12.522229    -12.522230
   2.10645    -12.492412    -12.492413
   2.06776    -12.466052    -12.466052
   2.02908    -12.443441    -12.443441
   1.99039    -12.424814    -12.424815
   1.95170    -12.410320    -12.410320
   1.91301    -12.400036    -12.400036
   1.87432    -12.393934    -12.393935
   1.83563    -12.391898    -12.391899
   1.79694    -12.393547    -12.393548
   1.79694    -12.393547    -12.393548
   1.77759    -12.393179    -12.393180
   1.75825    -12.393643    -12.393644
   1.73890    -12.394973    -12.394974
   1.71956    -12.397121    -12.397122
   1.70021    -12.400033    -12.400034
   1.68087    -12.403654    -12.403655
   1.66152    -12.407926    -12.407927
   1.64218    -12.412789    -12.412790
   1.62283    -12.418179    -12.418180
   1.60349    -12.424025    -12.424026
   1.58414    -12.430269    -12.430269
   1.56480    -12.436835    -12.436836
   1.54545    -12.443655    -12.443656
   1.52611    -12.450666    -12.450666
   1.50676    -12.457799    -12.457800
   1.48742    -12.464991    -12.464992
   1.46807    -12.472173    -12.472174
   1.44873    -12.479293    -12.479294
   1.42939    -12.486290    -12.486290
   1.41004    -12.493105    -12.493106
   1.39070    -12.499688    -12.499689
   1.37135    -12.505991    -12.505991
   1.35201    -12.511963    -12.511964
   1.33266    -12.517562    -12.517563
   1.31332    -12.522754    -12.522754
   1.29397    -12.527497    -12.527497
   1.27463    -12.531756    -12.531757
   1.25528    -12.535507    -12.535507
   1.23594    -12.538722    -12.538723
   1.21659    -12.541381    -12.541382
   1.19725    -12.543468    -12.543468
   1.17790    -12.544968    -12.544969
   1.15856    -12.545873    -12.545873
   1.13921    -12.546176    -12.546177
   1.13921    -12.546176    -12.546177
   1.10571    -12.544496    -12.544497
   1.07220    -12.546975    -12.546975
   1.03869    -12.553624    -12.553625
   1.00519    -12.564304    -12.564305
   0.97168    -12.578823    -12.578824
   0.93818    -12.596941    -12.596941
   0.90467    -12.618356    -12.618356
   0.87116    -12.642754    -12.642754
   0.83766    -12.669781    -12.669782
   0.80415    -12.699077    -12.699078
   0.77064    -12.730267    -12.730267
   0.73714    -12.762970    -12.762970
   0.70363    -12.796821    -12.796822
   0.67013    -12.831452    -12.831453
   0.63662    -12.866518    -12.866518
   0.60311    -12.901670    -12.901671
   0.56961    -12.936588    -12.936588
   0.53610    -12.970976    -12.970977
   0.50259    -13.004566    -13.004566
   0.46909    -13.037099    -13.037099
   0.43558    -13.068339    -13.068340
   0.40208    -13.098072    -13.098072
   0.36857    -13.126101    -13.126101
   0.33506    -13.152253    -13.152253
   0.30156    -13.176363    -13.176364
   0.26805    -13.198299    -13.198300
   0.23454    -13.217929    -13.217930
   0.20104    -13.235154    -13.235155
   0.16753    -13.249882    -13.249882
   0.13403    -13.262037    -13.262037
   0.10052    -13.271552    -13.271553
   0.06701    -13.278381    -13.278381
   0.03351    -13.282491    -13.282491
   0.00000    -13.283862    -13.283862
 
# Band-Index:    7
   0.00000     -6.417913     -6.417913
   0.03351     -6.414204     -6.414204
   0.06701     -6.403117     -6.403117
   0.10052     -6.384766     -6.384766
   0.13403     -6.359347     -6.359347
   0.16753     -6.327148     -6.327149
   0.20104     -6.288566     -6.288566
   0.23454     -6.244093     -6.244093
   0.26805     -6.194366     -6.194366
   0.30156     -6.140155     -6.140155
   0.33506     -6.082473     -6.082474
   0.36857     -6.022518     -6.022518
   0.40208     -5.961782     -5.961783
   0.43558     -5.902087     -5.902087
   0.46909     -5.845649     -5.845649
   0.50259     -5.795064     -5.795065
   0.53610     -5.753276     -5.753277
   0.56961     -5.723345     -5.723345
   0.60311     -5.707968     -5.707968
   0.63662     -5.708884     -5.708885
   0.67013     -5.726301     -5.726301
   0.70363     -5.758691     -5.758691
   0.73714     -5.803287     -5.803287
   0.77064     -5.856712     -5.856713
   0.80415     -5.915568     -5.915569
   0.83766     -5.976811     -5.976811
   0.87116     -6.037775     -6.037775
   0.90467     -6.096242     -6.096242
   0.93818     -6.150304     -6.150304
   0.97168     -6.198354     -6.198354
   1.00519     -6.238999     -6.238999
   1.03869     -6.271078     -6.271078
   1.07220     -6.293667     -6.293667
   1.10571     -6.306054     -6.306054
   1.13921     -6.307862     -6.307862
   1.13921     -6.307862     -6.307862
   1.15856     -6.306459     -6.306459
   1.17790     -6.302265     -6.302265
   1.19725     -6.295282     -6.295282
   1.21659     -6.285529     -6.285529
   1.23594     -6.273019     -6.273019
   1.25528     -6.257769     -6.257769
   1.27463     -6.239819     -6.239819
   1.29397     -6.219198     -6.219198
   1.31332     -6.195946     -6.195946
   1.33266     -6.170105     -6.170105
   1.35201     -6.141726     -6.141726
   1.37135     -6.110866     -6.110866
   1.39070     -6.077590     -6.077590
   1.41004     -6.041972     -6.041972
   1.42939     -6.004097     -6.004097
   1.44873     -5.964059     -5.964059
   1.46807     -5.921990     -5.921990
   1.48742     -5.878079     -5.878079
   1.50676     -5.832668     -5.832668
   1.52611     -5.786663     -5.786663
   1.54545     -5.744462     -5.744462
   1.56480     -5.735697     -5.735697
   1.58414     -5.757635     -5.757635
   1.60349     -5.779282     -5.779282
   1.62283     -5.799982     -5.799982
   1.64218     -5.819382     -5.819383
   1.66152     -5.837215     -5.837216
   1.68087     -5.853240     -5.853241
   1.70021     -5.867244     -5.867244
   1.71956     -5.879028     -5.879028
   1.73890     -5.888396     -5.888397
   1.75825     -5.895201     -5.895201
   1.77759     -5.899290     -5.899291
   1.79694     -5.900592     -5.900593
   1.79694     -5.900592     -5.900593
   1.83563     -5.894550     -5.894551
   1.87432     -5.875527     -5.875527
   1.91301     -5.843039     -5.843040
   1.95170     -5.796873     -5.796873
   1.99039     -5.737205     -5.737206
   2.02908     -5.665080     -5.665080
   2.06776     -5.656436     -5.656436
   2.10645     -5.691199     -5.691199
   2.14514     -5.711485     -5.711485
   2.18383     -5.718173     -5.718173
   2.22252     -5.713032     -5.713032
   2.26121     -5.698435     -5.698435
   2.29990     -5.677530     -5.677530
   2.33859     -5.654239     -5.654239
   2.37728     -5.633319     -5.633319
   2.41597     -5.620030     -5.620030
   2.45466     -5.619331     -5.619331
   2.49335     -5.634618     -5.634619
   2.53204     -5.666736     -5.666737
   2.57073     -5.714019     -5.714019
   2.60942     -5.773140     -5.773140
   2.64811     -5.840308     -5.840308
   2.68680     -5.911959     -5.911960
   2.72549     -5.984996     -5.984996
   2.76418     -6.056896     -6.056897
   2.80287     -6.125626     -6.125626
   2.84156     -6.189530     -6.189530
   2.88025     -6.247274     -6.247274
   2.91894     -6.297777     -6.297777
   2.95763     -6.340185     -6.340186
   2.99632     -6.373830     -6.373830
   3.03501     -6.398206     -6.398206
   3.07370     -6.412968     -6.412969
   3.11239     -6.417913     -6.417913
 
# Band-Index:    8
   3.11239     -5.954717     -5.954717
   3.07370     -5.949916     -5.949917
   3.03501     -5.935597     -5.935597
   2.99632     -5.911992     -5.911992
   2.95763     -5.879524     -5.879524
   2.91894     -5.838790     -5.838790
   2.88025     -5.790571     -5.790571
   2.84156     -5.735917     -5.735917
   2.80287     -5.676133     -5.676133
   2.76418     -5.612886     -5.612886
   2.72549     -5.548300     -5.548301
   2.68680     -5.485091     -5.485091
   2.64811     -5.426709     -5.426709
   2.60942     -5.377405     -5.377405
   2.57073     -5.341989     -5.341989
   2.53204     -5.324823     -5.324823
   2.49335     -5.328141     -5.328141
   2.45466     -5.350487     -5.350487
   2.41597     -5.387056     -5.387056
   2.37728     -5.431546     -5.431546
   2.33859     -5.477891     -5.477891
   2.29990     -5.521147     -5.521147
   2.26121     -5.557476     -5.557476
   2.22252     -5.583947     -5.583947
   2.18383     -5.598460     -5.598460
   2.14514     -5.599660     -5.599660
   2.10645     -5.588056     -5.588056
   2.06776     -5.591069     -5.591070
   2.02908     -5.664887     -5.664888
   1.99039     -5.737014     -5.737014
   1.95170     -5.796685     -5.796685
   1.91301     -5.842854     -5.842854
   1.87432     -5.875345     -5.875345
   1.83563     -5.894377     -5.894377
   1.79694     -5.900502     -5.900502
   1.79694     -5.900502     -5.900502
   1.77759     -5.898884     -5.898884
   1.75825     -5.894258     -5.894258
   1.73890     -5.886798     -5.886798
   1.71956     -5.876645     -5.876645
   1.70021     -5.863952     -5.863953
   1.68087     -5.848904     -5.848904
   1.66152     -5.831702     -5.831702
   1.64218     -5.812587     -5.812587
   1.62283     -5.791874     -5.791874
   1.60349     -5.770011     -5.770011
   1.58414     -5.748084     -5.748084
   1.56480     -5.730961     -5.730961
   1.54545     -5.744307     -5.744307
   1.52611     -5.786471     -5.786471
   1.50676     -5.832474     -5.832474
   1.48742     -5.877885     -5.877885
   1.46807     -5.921796     -5.921796
   1.44873     -5.963866     -5.963866
   1.42939     -6.003905     -6.003905
   1.41004     -6.041780     -6.041780
   1.39070     -6.077398     -6.077398
   1.37135     -6.110674     -6.110674
   1.35201     -6.141535     -6.141535
   1.33266     -6.169913     -6.169914
   1.31332     -6.195755     -6.195755
   1.29397     -6.219007     -6.219007
   1.27463     -6.239628     -6.239628
   1.25528     -6.257578     -6.257578
   1.23594     -6.272828     -6.272829
   1.21659     -6.285338     -6.285338
   1.19725     -6.295091     -6.295092
   1.17790     -6.302074     -6.302074
   1.15856     -6.306268     -6.306268
   1.13921     -6.307671     -6.307672
   1.13921     -6.307671     -6.307672
   1.10571     -6.298560     -6.298561
   1.07220     -6.278482     -6.278482
   1.03869     -6.247788     -6.247789
   1.00519     -6.207026     -6.207026
   0.97168     -6.156848     -6.156848
   0.93818     -6.098196     -6.098196
   0.90467     -6.032159     -6.032159
   0.87116     -5.959983     -5.959983
   0.83766     -5.883129     -5.883129
   0.80415     -5.803287     -5.803287
   0.77064     -5.722496     -5.722496
   0.73714     -5.643189     -5.643189
   0.70363     -5.568436     -5.568436
   0.67013     -5.501908     -5.501908
   0.63662     -5.448437     -5.448437
   0.60311     -5.411499     -5.411499
   0.56961     -5.392546     -5.392546
   0.53610     -5.392318     -5.392318
   0.50259     -5.409335     -5.409335
   0.46909     -5.440554     -5.440554
   0.43558     -5.482476     -5.482476
   0.40208     -5.531263     -5.531263
   0.36857     -5.583730     -5.583730
   0.33506     -5.637400     -5.637400
   0.30156     -5.690276     -5.690277
   0.26805     -5.740793     -5.740793
   0.23454     -5.787708     -5.787708
   0.20104     -5.830036     -5.830037
   0.16753     -5.867005     -5.867005
   0.13403     -5.898004     -5.898004
   0.10052     -5.922573     -5.922573
   0.06701     -5.940357     -5.940357
   0.03351     -5.951116     -5.951116
   0.00000     -5.954717     -5.954717
 
# Band-Index:    9
   0.00000     -5.954551     -5.954551
   0.03351     -5.950950     -5.950950
   0.06701     -5.940191     -5.940192
   0.10052     -5.922405     -5.922405
   0.13403     -5.897832     -5.897833
   0.16753     -5.866815     -5.866815
   0.20104     -5.829806     -5.829807
   0.23454     -5.787415     -5.787415
   0.26805     -5.740412     -5.740412
   0.30156     -5.689804     -5.689805
   0.33506     -5.636851     -5.636852
   0.36857     -5.583162     -5.583162
   0.40208     -5.530754     -5.530754
   0.43558     -5.482161     -5.482161
   0.46909     -5.440346     -5.440346
   0.50259     -5.408582     -5.408582
   0.53610     -5.390896     -5.390896
   0.56961     -5.390652     -5.390653
   0.60311     -5.409722     -5.409722
   0.63662     -5.447673     -5.447673
   0.67013     -5.500597     -5.500597
   0.70363     -5.564213     -5.564213
   0.73714     -5.635360     -5.635360
   0.77064     -5.710580     -5.710580
   0.80415     -5.786999     -5.786999
   0.83766     -5.862313     -5.862313
   0.87116     -5.934529     -5.934529
   0.90467     -6.002052     -6.002052
   0.93818     -6.063490     -6.063490
   0.97168     -6.117668     -6.117668
   1.00519     -6.163525     -6.163525
   1.03869     -6.200157     -6.200157
   1.07220     -6.226855     -6.226855
   1.10571     -6.243095     -6.243095
   1.13921     -6.248555     -6.248556
   1.13921     -6.248555     -6.248556
   1.15856     -6.247158     -6.247158
   1.17790     -6.242986     -6.242986
   1.19725     -6.236037     -6.236037
   1.21659     -6.226335     -6.226336
   1.23594     -6.213893     -6.213894
   1.25528     -6.198728     -6.198728
   1.27463     -6.180870     -6.180870
   1.29397     -6.160353     -6.160353
   1.31332     -6.137210     -6.137210
   1.33266     -6.111497     -6.111497
   1.35201     -6.083252     -6.083252
   1.37135     -6.052530     -6.052530
   1.39070     -6.019398     -6.019398
   1.41004     -5.983920     -5.983920
   1.42939     -5.946179     -5.946179
   1.44873     -5.906271     -5.906271
   1.46807     -5.864317     -5.864317
   1.48742     -5.820522     -5.820522
   1.50676     -5.775347     -5.775347
   1.52611     -5.731306     -5.731306
   1.54545     -5.716620     -5.716621
   1.56480     -5.730890     -5.730890
   1.58414     -5.747931     -5.747931
   1.60349     -5.769838     -5.769838
   1.62283     -5.791692     -5.791693
   1.64218     -5.812401     -5.812402
   1.66152     -5.831513     -5.831513
   1.68087     -5.848713     -5.848713
   1.70021     -5.863759     -5.863760
   1.71956     -5.876450     -5.876450
   1.73890     -5.886600     -5.886600
   1.75825     -5.894056     -5.894056
   1.77759     -5.898671     -5.898671
   1.79694     -5.900269     -5.900270
   1.79694     -5.900269     -5.900270
   1.83563     -5.893720     -5.893720
   1.87432     -5.874252     -5.874253
   1.91301     -5.841385     -5.841385
   1.95170     -5.794770     -5.794771
   1.99039     -5.734325     -5.734326
   2.02908     -5.660833     -5.660834
   2.06776     -5.590944     -5.590944
   2.10645     -5.587917     -5.587917
   2.14514     -5.599494     -5.599494
   2.18383     -5.598288     -5.598288
   2.22252     -5.583773     -5.583773
   2.26121     -5.557301     -5.557301
   2.29990     -5.520972     -5.520972
   2.33859     -5.477717     -5.477717
   2.37728     -5.431374     -5.431374
   2.41597     -5.386887     -5.386887
   2.45466     -5.350322     -5.350322
   2.49335     -5.327980     -5.327980
   2.53204     -5.324664     -5.324665
   2.57073     -5.341832     -5.341833
   2.60942     -5.377249     -5.377250
   2.64811     -5.426553     -5.426553
   2.68680     -5.484934     -5.484934
   2.72549     -5.548142     -5.548142
   2.76418     -5.612726     -5.612726
   2.80287     -5.675972     -5.675972
   2.84156     -5.735755     -5.735755
   2.88025     -5.790408     -5.790408
   2.91894     -5.838626     -5.838627
   2.95763     -5.879360     -5.879360
   2.99632     -5.911827     -5.911827
   3.03501     -5.935432     -5.935432
   3.07370     -5.949751     -5.949751
   3.11239     -5.954551     -5.954551
 
# Band-Index:   10
   3.11239     -3.069694     -3.069693
   3.07370     -3.079984     -3.079984
   3.03501     -3.110457     -3.110456
   2.99632     -3.160105     -3.160104
   2.95763     -3.227270     -3.227269
   2.91894     -3.309802     -3.309802
   2.88025     -3.405156     -3.405156
   2.84156     -3.510550     -3.510549
   2.80287     -3.622951     -3.622951
   2.76418     -3.739195     -3.739195
   2.72549     -3.855903     -3.855902
   2.68680     -3.969412     -3.969412
   2.64811     -4.075684     -4.075684
   2.60942     -4.170291     -4.170291
   2.57073     -4.249371     -4.249372
   2.53204     -4.316275     -4.316275
   2.49335     -4.362124     -4.362124
   2.45466     -4.385457     -4.385458
   2.41597     -4.433998     -4.433998
   2.37728     -4.536268     -4.536268
   2.33859     -4.671725     -4.671726
   2.29990     -4.817319     -4.817320
   2.26121     -4.962693     -4.962693
   2.22252     -5.102973     -5.102974
   2.18383     -5.235310     -5.235311
   2.14514     -5.357526     -5.357527
   2.10645     -5.469502     -5.469502
   2.06776     -5.570302     -5.570303
   2.02908     -5.603100     -5.603100
   1.99039     -5.537466     -5.537466
   1.95170     -5.456117     -5.456118
   1.91301     -5.362036     -5.362036
   1.87432     -5.260469     -5.260469
   1.83563     -5.164236     -5.164236
   1.79694     -5.104156     -5.104157
   1.79694     -5.104156     -5.104157
   1.77759     -5.119606     -5.119606
   1.75825     -5.150277     -5.150277
   1.73890     -5.191705     -5.191705
   1.71956     -5.239986     -5.239986
   1.70021     -5.292338     -5.292338
   1.68087     -5.346925     -5.346925
   1.66152     -5.402527     -5.402527
   1.64218     -5.458301     -5.458301
   1.62283     -5.513587     -5.513587
   1.60349     -5.567725     -5.567725
   1.58414     -5.619568     -5.619568
   1.56480     -5.664165     -5.664166
   1.54545     -5.675974     -5.675974
   1.52611     -5.678432     -5.678433
   1.50676     -5.658099     -5.658099
   1.48742     -5.634869     -5.634870
   1.46807     -5.611371     -5.611371
   1.44873     -5.588204     -5.588204
   1.42939     -5.565675     -5.565675
   1.41004     -5.544016     -5.544016
   1.39070     -5.523425     -5.523425
   1.37135     -5.504034     -5.504035
   1.35201     -5.485992     -5.485992
   1.33266     -5.469379     -5.469379
   1.31332     -5.454284     -5.454284
   1.29397     -5.440752     -5.440752
   1.27463     -5.428812     -5.428812
   1.25528     -5.418479     -5.418479
   1.23594     -5.409761     -5.409761
   1.21659     -5.402645     -5.402645
   1.19725     -5.397129     -5.397129
   1.17790     -5.393205     -5.393205
   1.15856     -5.390855     -5.390855
   1.13921     -5.390072     -5.390072
   1.13921     -5.390072     -5.390072
   1.10571     -5.384722     -5.384722
   1.07220     -5.368753     -5.368753
   1.03869     -5.342356     -5.342356
   1.00519     -5.305848     -5.305849
   0.97168     -5.259697     -5.259697
   0.93818     -5.204481     -5.204481
   0.90467     -5.140857     -5.140858
   0.87116     -5.069652     -5.069652
   0.83766     -4.991811     -4.991811
   0.80415     -4.908433     -4.908434
   0.77064     -4.820900     -4.820900
   0.73714     -4.730896     -4.730897
   0.70363     -4.640727     -4.640727
   0.67013     -4.565707     -4.565708
   0.63662     -4.498552     -4.498553
   0.60311     -4.435810     -4.435810
   0.56961     -4.370997     -4.370997
   0.53610     -4.298600     -4.298600
   0.50259     -4.216417     -4.216417
   0.46909     -4.125063     -4.125063
   0.43558     -4.026536     -4.026536
   0.40208     -3.923303     -3.923303
   0.36857     -3.817781     -3.817781
   0.33506     -3.712269     -3.712268
   0.30156     -3.608884     -3.608884
   0.26805     -3.509642     -3.509642
   0.23454     -3.416457     -3.416457
   0.20104     -3.331162     -3.331162
   0.16753     -3.255463     -3.255463
   0.13403     -3.190968     -3.190968
   0.10052     -3.139105     -3.139105
   0.06701     -3.101038     -3.101038
   0.03351     -3.077700     -3.077699
   0.00000     -3.069694     -3.069693
 
# Band-Index:   11
   0.00000     -3.069694     -3.069693
   0.03351     -3.076917     -3.076916
   0.06701     -3.099465     -3.099464
   0.10052     -3.136657     -3.136656
   0.13403     -3.187568     -3.187567
   0.16753     -3.250977     -3.250977
   0.20104     -3.325419     -3.325419
   0.23454     -3.409250     -3.409250
   0.26805     -3.500696     -3.500696
   0.30156     -3.597884     -3.597884
   0.33506     -3.698815     -3.698814
   0.36857     -3.801424     -3.801423
   0.40208     -3.903510     -3.903510
   0.43558     -4.003809     -4.003809
   0.46909     -4.101732     -4.101732
   0.50259     -4.193217     -4.193217
   0.53610     -4.275817     -4.275817
   0.56961     -4.347237     -4.347237
   0.60311     -4.405757     -4.405758
   0.63662     -4.472934     -4.472935
   0.67013     -4.553513     -4.553513
   0.70363     -4.640039     -4.640039
   0.73714     -4.719696     -4.719696
   0.77064     -4.801195     -4.801195
   0.80415     -4.881505     -4.881505
   0.83766     -4.958409     -4.958410
   0.87116     -5.030271     -5.030271
   0.90467     -5.095773     -5.095773
   0.93818     -5.153866     -5.153866
   0.97168     -5.203662     -5.203663
   1.00519     -5.244460     -5.244460
   1.03869     -5.275608     -5.275609
   1.07220     -5.296607     -5.296607
   1.10571     -5.307120     -5.307121
   1.13921     -5.306960     -5.306960
   1.13921     -5.306960     -5.306960
   1.15856     -5.307987     -5.307987
   1.17790     -5.311081     -5.311082
   1.19725     -5.316237     -5.316237
   1.21659     -5.323448     -5.323449
   1.23594     -5.332706     -5.332707
   1.25528     -5.343985     -5.343985
   1.27463     -5.357254     -5.357254
   1.29397     -5.372466     -5.372467
   1.31332     -5.389554     -5.389554
   1.33266     -5.408431     -5.408431
   1.35201     -5.428991     -5.428991
   1.37135     -5.451082     -5.451082
   1.39070     -5.474551     -5.474551
   1.41004     -5.499208     -5.499208
   1.42939     -5.524843     -5.524844
   1.44873     -5.551216     -5.551216
   1.46807     -5.578049     -5.578049
   1.48742     -5.605016     -5.605016
   1.50676     -5.631607     -5.631607
   1.52611     -5.656777     -5.656778
   1.54545     -5.675804     -5.675804
   1.56480     -5.664083     -5.664083
   1.58414     -5.619418     -5.619419
   1.60349     -5.567558     -5.567558
   1.62283     -5.513413     -5.513413
   1.64218     -5.458124     -5.458124
   1.66152     -5.402348     -5.402348
   1.68087     -5.346745     -5.346745
   1.70021     -5.292157     -5.292157
   1.71956     -5.239805     -5.239805
   1.73890     -5.191523     -5.191523
   1.75825     -5.150095     -5.150095
   1.77759     -5.119424     -5.119425
   1.79694     -5.104070     -5.104070
   1.79694     -5.104070     -5.104070
   1.83563     -5.125633     -5.125633
   1.87432     -5.196107     -5.196107
   1.91301     -5.282571     -5.282571
   1.95170     -5.366991     -5.366991
   1.99039     -5.441220     -5.441220
   2.02908     -5.500662     -5.500662
   2.06776     -5.533368     -5.533368
   2.10645     -5.466583     -5.466584
   2.14514     -5.357363     -5.357363
   2.18383     -5.235138     -5.235138
   2.22252     -5.102799     -5.102799
   2.26121     -4.962520     -4.962521
   2.29990     -4.817152     -4.817152
   2.33859     -4.671571     -4.671571
   2.37728     -4.536150     -4.536150
   2.41597     -4.433971     -4.433971
   2.45466     -4.381424     -4.381425
   2.49335     -4.348910     -4.348910
   2.53204     -4.308036     -4.308037
   2.57073     -4.248790     -4.248790
   2.60942     -4.170111     -4.170111
   2.64811     -4.075496     -4.075496
   2.68680     -3.969220     -3.969220
   2.72549     -3.855707     -3.855707
   2.76418     -3.738998     -3.738997
   2.80287     -3.622752     -3.622752
   2.84156     -3.510350     -3.510349
   2.88025     -3.404955     -3.404955
   2.91894     -3.309601     -3.309600
   2.95763     -3.227068     -3.227068
   2.99632     -3.159903     -3.159903
   3.03501     -3.110255     -3.110255
   3.07370     -3.079783     -3.079783
   3.11239     -3.069694     -3.069693
 
# Band-Index:   12
   3.11239     -3.069492     -3.069492
   3.07370     -3.074024     -3.074024
   3.03501     -3.104216     -3.104216
   2.99632     -3.153417     -3.153416
   2.95763     -3.219948     -3.219948
   2.91894     -3.301684     -3.301684
   2.88025     -3.396127     -3.396127
   2.84156     -3.500551     -3.500551
   2.80287     -3.612032     -3.612032
   2.76418     -3.727557     -3.727557
   2.72549     -3.843987     -3.843986
   2.68680     -3.958032     -3.958032
   2.64811     -4.066182     -4.066182
   2.60942     -4.164645     -4.164645
   2.57073     -4.248602     -4.248602
   2.53204     -4.307878     -4.307879
   2.49335     -4.348780     -4.348780
   2.45466     -4.381347     -4.381347
   2.41597     -4.388474     -4.388474
   2.37728     -4.459838     -4.459838
   2.33859     -4.626968     -4.626969
   2.29990     -4.789915     -4.789916
   2.26121     -4.945646     -4.945647
   2.22252     -5.092635     -5.092635
   2.18383     -5.229635     -5.229635
   2.14514     -5.355556     -5.355556
   2.10645     -5.466431     -5.466431
   2.06776     -5.533238     -5.533238
   2.02908     -5.500470     -5.500470
   1.99039     -5.441030     -5.441030
   1.95170     -5.366803     -5.366803
   1.91301     -5.282385     -5.282385
   1.87432     -5.195921     -5.195921
   1.83563     -5.125448     -5.125448
   1.79694     -5.103849     -5.103849
   1.79694     -5.103849     -5.103849
   1.77759     -5.101049     -5.101049
   1.75825     -5.118207     -5.118207
   1.73890     -5.151136     -5.151136
   1.71956     -5.194409     -5.194409
   1.70021     -5.243825     -5.243825
   1.68087     -5.296665     -5.296665
   1.66152     -5.351221     -5.351221
   1.64218     -5.406416     -5.406416
   1.62283     -5.461508     -5.461508
   1.60349     -5.515964     -5.515964
   1.58414     -5.569315     -5.569315
   1.56480     -5.620877     -5.620877
   1.54545     -5.667519     -5.667519
   1.52611     -5.656575     -5.656576
   1.50676     -5.631404     -5.631404
   1.48742     -5.604815     -5.604815
   1.46807     -5.577850     -5.577850
   1.44873     -5.551018     -5.551018
   1.42939     -5.524647     -5.524648
   1.41004     -5.499013     -5.499013
   1.39070     -5.474357     -5.474357
   1.37135     -5.450890     -5.450890
   1.35201     -5.428800     -5.428801
   1.33266     -5.408241     -5.408241
   1.31332     -5.389366     -5.389366
   1.29397     -5.372279     -5.372280
   1.27463     -5.357068     -5.357068
   1.25528     -5.343800     -5.343800
   1.23594     -5.332523     -5.332523
   1.21659     -5.323266     -5.323266
   1.19725     -5.316055     -5.316055
   1.17790     -5.310900     -5.310900
   1.15856     -5.307805     -5.307805
   1.13921     -5.306779     -5.306779
   1.13921     -5.306779     -5.306779
   1.10571     -5.295719     -5.295720
   1.07220     -5.273651     -5.273651
   1.03869     -5.240770     -5.240770
   1.00519     -5.197288     -5.197288
   0.97168     -5.143538     -5.143538
   0.93818     -5.079931     -5.079931
   0.90467     -5.007000     -5.007000
   0.87116     -4.925411     -4.925412
   0.83766     -4.836039     -4.836039
   0.80415     -4.740175     -4.740175
   0.77064     -4.640931     -4.640932
   0.73714     -4.553356     -4.553356
   0.70363     -4.510939     -4.510940
   0.67013     -4.484142     -4.484142
   0.63662     -4.450869     -4.450870
   0.60311     -4.400505     -4.400505
   0.56961     -4.332387     -4.332388
   0.53610     -4.261620     -4.261620
   0.50259     -4.183455     -4.183455
   0.46909     -4.096780     -4.096780
   0.43558     -4.002739     -4.002739
   0.40208     -3.901794     -3.901793
   0.36857     -3.797923     -3.797923
   0.33506     -3.694270     -3.694270
   0.30156     -3.592782     -3.592782
   0.26805     -3.495370     -3.495370
   0.23454     -3.403890     -3.403890
   0.20104     -3.320119     -3.320119
   0.16753     -3.245764     -3.245764
   0.13403     -3.182421     -3.182420
   0.10052     -3.131514     -3.131514
   0.06701     -3.094227     -3.094227
   0.03351     -3.071484     -3.071483
   0.00000     -3.069492     -3.069492
 
# Band-Index:   13
   0.00000     -3.069492     -3.069492
   0.03351     -3.066664     -3.066663
   0.06701     -3.057083     -3.057082
   0.10052     -3.040978     -3.040977
   0.13403     -3.018415     -3.018415
   0.16753     -2.989593     -2.989593
   0.20104     -2.992907     -2.992907
   0.23454     -3.083368     -3.083369
   0.26805     -3.177553     -3.177554
   0.30156     -3.274572     -3.274572
   0.33506     -3.373749     -3.373749
   0.36857     -3.474551     -3.474551
   0.40208     -3.576444     -3.576445
   0.43558     -3.678796     -3.678797
   0.46909     -3.780766     -3.780767
   0.50259     -3.881009     -3.881010
   0.53610     -3.977477     -3.977477
   0.56961     -4.070738     -4.070739
   0.60311     -4.155723     -4.155724
   0.63662     -4.227773     -4.227773
   0.67013     -4.283285     -4.283286
   0.70363     -4.385511     -4.385511
   0.73714     -4.471904     -4.471904
   0.77064     -4.503765     -4.503765
   0.80415     -4.516670     -4.516670
   0.83766     -4.526875     -4.526875
   0.87116     -4.537645     -4.537646
   0.90467     -4.549642     -4.549642
   0.93818     -4.562509     -4.562509
   0.97168     -4.575386     -4.575387
   1.00519     -4.587225     -4.587225
   1.03869     -4.596945     -4.596946
   1.07220     -4.603583     -4.603584
   1.10571     -4.606385     -4.606385
   1.13921     -4.604873     -4.604873
   1.13921     -4.604873     -4.604873
   1.15856     -4.604462     -4.604463
   1.17790     -4.603236     -4.603236
   1.19725     -4.601199     -4.601200
   1.21659     -4.598358     -4.598359
   1.23594     -4.594724     -4.594724
   1.25528     -4.590315     -4.590316
   1.27463     -4.585156     -4.585156
   1.29397     -4.579280     -4.579281
   1.31332     -4.572715     -4.572716
   1.33266     -4.565512     -4.565512
   1.35201     -4.557726     -4.557727
   1.37135     -4.549415     -4.549415
   1.39070     -4.540650     -4.540651
   1.41004     -4.531515     -4.531515
   1.42939     -4.522109     -4.522109
   1.44873     -4.512540     -4.512540
   1.46807     -4.502933     -4.502933
   1.48742     -4.493443     -4.493443
   1.50676     -4.484234     -4.484235
   1.52611     -4.475524     -4.475524
   1.54545     -4.467561     -4.467562
   1.56480     -4.460683     -4.460684
   1.58414     -4.455315     -4.455315
   1.60349     -4.451984     -4.451984
   1.62283     -4.451432     -4.451432
   1.64218     -4.454563     -4.454564
   1.66152     -4.462477     -4.462478
   1.68087     -4.476269     -4.476269
   1.70021     -4.496586     -4.496586
   1.71956     -4.522960     -4.522960
   1.73890     -4.553165     -4.553165
   1.75825     -4.583680     -4.583680
   1.77759     -4.611159     -4.611159
   1.79694     -4.617268     -4.617268
   1.79694     -4.617268     -4.617268
   1.83563     -4.588067     -4.588068
   1.87432     -4.507077     -4.507077
   1.91301     -4.406638     -4.406638
   1.95170     -4.310004     -4.310004
   1.99039     -4.233487     -4.233487
   2.02908     -4.183602     -4.183602
   2.06776     -4.163074     -4.163075
   2.10645     -4.166360     -4.166360
   2.14514     -4.180325     -4.180326
   2.18383     -4.203069     -4.203069
   2.22252     -4.232961     -4.232961
   2.26121     -4.267895     -4.267896
   2.29990     -4.304946     -4.304947
   2.33859     -4.339999     -4.339999
   2.37728     -4.366651     -4.366652
   2.41597     -4.281318     -4.281319
   2.45466     -4.113234     -4.113234
   2.49335     -4.010771     -4.010772
   2.53204     -3.914001     -3.914001
   2.57073     -3.825338     -3.825338
   2.60942     -3.739809     -3.739809
   2.64811     -3.653262     -3.653263
   2.68680     -3.563581     -3.563582
   2.72549     -3.470058     -3.470059
   2.76418     -3.372899     -3.372900
   2.80287     -3.272862     -3.272863
   2.84156     -3.171155     -3.171156
   2.88025     -3.069469     -3.069470
   2.91894     -2.971123     -2.971123
   2.95763     -2.999923     -2.999922
   2.99632     -3.030130     -3.030129
   3.03501     -3.052010     -3.052009
   3.07370     -3.065250     -3.065249
   3.11239     -3.069492     -3.069492
 
# Band-Index:   14
   3.11239     -3.063835     -3.063834
   3.07370     -3.065049     -3.065048
   3.03501     -3.051808     -3.051808
   2.99632     -3.029928     -3.029928
   2.95763     -2.999721     -2.999721
   2.91894     -2.970996     -2.970997
   2.88025     -3.069300     -3.069301
   2.84156     -3.170987     -3.170987
   2.80287     -3.272694     -3.272695
   2.76418     -3.372733     -3.372733
   2.72549     -3.469894     -3.469894
   2.68680     -3.563419     -3.563420
   2.64811     -3.653104     -3.653104
   2.60942     -3.739655     -3.739656
   2.57073     -3.825190     -3.825190
   2.53204     -3.913861     -3.913861
   2.49335     -4.010644     -4.010644
   2.45466     -4.113141     -4.113142
   2.41597     -4.196249     -4.196250
   2.37728     -4.229420     -4.229420
   2.33859     -4.227550     -4.227550
   2.29990     -4.212526     -4.212527
   2.26121     -4.193591     -4.193592
   2.22252     -4.174743     -4.174744
   2.18383     -4.158657     -4.158657
   2.14514     -4.148082     -4.148082
   2.10645     -4.146182     -4.146183
   2.06776     -4.156516     -4.156517
   2.02908     -4.183450     -4.183451
   1.99039     -4.233327     -4.233327
   1.95170     -4.309837     -4.309837
   1.91301     -4.406464     -4.406464
   1.87432     -4.506898     -4.506899
   1.83563     -4.587887     -4.587887
   1.79694     -4.617179     -4.617179
   1.79694     -4.617179     -4.617179
   1.77759     -4.606425     -4.606426
   1.75825     -4.582958     -4.582958
   1.73890     -4.552979     -4.552979
   1.71956     -4.522771     -4.522771
   1.70021     -4.496395     -4.496395
   1.68087     -4.476077     -4.476077
   1.66152     -4.462284     -4.462284
   1.64218     -4.454369     -4.454369
   1.62283     -4.451236     -4.451237
   1.60349     -4.451788     -4.451788
   1.58414     -4.455119     -4.455119
   1.56480     -4.460487     -4.460488
   1.54545     -4.467365     -4.467366
   1.52611     -4.475328     -4.475328
   1.50676     -4.484039     -4.484039
   1.48742     -4.493248     -4.493248
   1.46807     -4.502738     -4.502739
   1.44873     -4.512346     -4.512346
   1.42939     -4.521916     -4.521916
   1.41004     -4.531322     -4.531323
   1.39070     -4.540459     -4.540459
   1.37135     -4.549225     -4.549225
   1.35201     -4.557538     -4.557538
   1.33266     -4.565324     -4.565325
   1.31332     -4.572529     -4.572529
   1.29397     -4.579095     -4.579095
   1.27463     -4.584972     -4.584972
   1.25528     -4.590133     -4.590133
   1.23594     -4.594542     -4.594542
   1.21659     -4.598178     -4.598178
   1.19725     -4.601019     -4.601020
   1.17790     -4.603056     -4.603056
   1.15856     -4.604283     -4.604284
   1.13921     -4.604694     -4.604694
   1.13921     -4.604694     -4.604694
   1.10571     -4.598489     -4.598490
   1.07220     -4.587457     -4.587458
   1.03869     -4.571919     -4.571919
   1.00519     -4.552341     -4.552342
   0.97168     -4.529462     -4.529462
   0.93818     -4.504239     -4.504239
   0.90467     -4.477749     -4.477749
   0.87116     -4.451115     -4.451116
   0.83766     -4.425306     -4.425306
   0.80415     -4.400790     -4.400791
   0.77064     -4.377169     -4.377169
   0.73714     -4.352565     -4.352565
   0.70363     -4.323154     -4.323155
   0.67013     -4.271480     -4.271480
   0.63662     -4.197470     -4.197470
   0.60311     -4.141260     -4.141261
   0.56961     -4.065977     -4.065978
   0.53610     -3.977310     -3.977310
   0.50259     -3.879341     -3.879342
   0.46909     -3.778672     -3.778672
   0.43558     -3.676854     -3.676855
   0.40208     -3.574855     -3.574855
   0.36857     -3.473331     -3.473332
   0.33506     -3.372860     -3.372860
   0.30156     -3.273924     -3.273925
   0.26805     -3.177073     -3.177074
   0.23454     -3.082993     -3.082994
   0.20104     -2.992605     -2.992606
   0.16753     -2.985559     -2.985559
   0.13403     -3.015244     -3.015244
   0.10052     -3.038636     -3.038636
   0.06701     -3.055550     -3.055549
   0.03351     -3.065877     -3.065876
   0.00000     -3.063835     -3.063834
 
# Band-Index:   15
   0.00000     -3.063834     -3.063834
   0.03351     -3.060489     -3.060488
   0.06701     -3.050472     -3.050471
   0.10052     -3.033848     -3.033847
   0.13403     -3.010721     -3.010720
   0.16753     -2.981255     -2.981255
   0.20104     -2.954715     -2.954714
   0.23454     -2.914036     -2.914035
   0.26805     -2.867851     -2.867851
   0.30156     -2.837015     -2.837016
   0.33506     -2.966555     -2.966555
   0.36857     -3.097670     -3.097670
   0.40208     -3.229945     -3.229946
   0.43558     -3.362962     -3.362962
   0.46909     -3.496312     -3.496312
   0.50259     -3.629553     -3.629553
   0.53610     -3.762121     -3.762122
   0.56961     -3.893453     -3.893454
   0.60311     -4.022823     -4.022823
   0.63662     -4.149311     -4.149311
   0.67013     -4.233793     -4.233794
   0.70363     -4.255560     -4.255560
   0.73714     -4.269746     -4.269746
   0.77064     -4.281783     -4.281783
   0.80415     -4.294909     -4.294910
   0.83766     -4.310602     -4.310603
   0.87116     -4.328986     -4.328986
   0.90467     -4.349393     -4.349394
   0.93818     -4.370673     -4.370674
   0.97168     -4.391494     -4.391495
   1.00519     -4.410542     -4.410543
   1.03869     -4.426639     -4.426640
   1.07220     -4.438839     -4.438840
   1.10571     -4.446438     -4.446438
   1.13921     -4.449020     -4.449021
   1.13921     -4.449020     -4.449021
   1.15856     -4.448538     -4.448538
   1.17790     -4.447102     -4.447103
   1.19725     -4.444726     -4.444726
   1.21659     -4.441437     -4.441438
   1.23594     -4.437266     -4.437267
   1.25528     -4.432252     -4.432253
   1.27463     -4.426458     -4.426459
   1.29397     -4.419941     -4.419941
   1.31332     -4.412770     -4.412770
   1.33266     -4.405024     -4.405024
   1.35201     -4.396800     -4.396800
   1.37135     -4.388185     -4.388185
   1.39070     -4.379277     -4.379277
   1.41004     -4.370180     -4.370181
   1.42939     -4.361020     -4.361020
   1.44873     -4.351920     -4.351920
   1.46807     -4.343019     -4.343020
   1.48742     -4.334485     -4.334485
   1.50676     -4.326528     -4.326529
   1.52611     -4.319403     -4.319403
   1.54545     -4.313434     -4.313435
   1.56480     -4.309128     -4.309128
   1.58414     -4.307204     -4.307204
   1.60349     -4.308740     -4.308740
   1.62283     -4.315383     -4.315383
   1.64218     -4.329488     -4.329488
   1.66152     -4.353761     -4.353761
   1.68087     -4.389873     -4.389873
   1.70021     -4.436472     -4.436472
   1.71956     -4.488828     -4.488828
   1.73890     -4.540349     -4.540349
   1.75825     -4.582761     -4.582761
   1.77759     -4.606240     -4.606240
   1.79694     -4.616961     -4.616961
   1.79694     -4.616961     -4.616961
   1.83563     -4.568102     -4.568102
   1.87432     -4.473161     -4.473161
   1.91301     -4.366709     -4.366709
   1.95170     -4.271979     -4.271979
   1.99039     -4.207110     -4.207110
   2.02908     -4.174124     -4.174125
   2.06776     -4.156377     -4.156378
   2.10645     -4.146062     -4.146062
   2.14514     -4.147981     -4.147982
   2.18383     -4.158574     -4.158574
   2.22252     -4.174671     -4.174671
   2.26121     -4.193522     -4.193523
   2.29990     -4.212454     -4.212455
   2.33859     -4.227476     -4.227476
   2.37728     -4.229362     -4.229362
   2.41597     -4.196230     -4.196231
   2.45466     -4.108431     -4.108431
   2.49335     -3.935804     -3.935805
   2.53204     -3.768206     -3.768207
   2.57073     -3.609804     -3.609804
   2.60942     -3.463266     -3.463267
   2.64811     -3.327652     -3.327652
   2.68680     -3.198867     -3.198867
   2.72549     -3.072519     -3.072519
   2.76418     -2.945770     -2.945770
   2.80287     -2.817992     -2.817992
   2.84156     -2.864019     -2.864018
   2.88025     -2.916033     -2.916033
   2.91894     -2.960355     -2.960354
   2.95763     -2.993565     -2.993565
   2.99632     -3.024017     -3.024017
   3.03501     -3.046044     -3.046044
   3.07370     -3.059374     -3.059373
   3.11239     -3.063834     -3.063834
 
# Band-Index:   16
   3.11239     -2.656192     -2.656193
   3.07370     -2.673136     -2.673137
   3.03501     -2.720454     -2.720455
   2.99632     -2.790415     -2.790416
   2.95763     -2.875420     -2.875421
   2.91894     -2.960195     -2.960195
   2.88025     -2.915832     -2.915831
   2.84156     -2.863817     -2.863817
   2.80287     -2.806537     -2.806536
   2.76418     -2.745116     -2.745116
   2.72549     -2.726983     -2.726983
   2.68680     -2.876949     -2.876949
   2.64811     -3.033864     -3.033865
   2.60942     -3.193110     -3.193110
   2.57073     -3.348956     -3.348956
   2.53204     -3.493189     -3.493190
   2.49335     -3.615395     -3.615396
   2.45466     -3.707415     -3.707416
   2.41597     -3.769179     -3.769180
   2.37728     -3.806597     -3.806597
   2.33859     -3.826094     -3.826094
   2.29990     -3.832765     -3.832765
   2.26121     -3.830421     -3.830421
   2.22252     -3.821583     -3.821584
   2.18383     -3.807378     -3.807379
   2.14514     -3.787695     -3.787696
   2.10645     -3.762355     -3.762356
   2.06776     -3.736952     -3.736953
   2.02908     -3.784219     -3.784219
   1.99039     -3.881974     -3.881974
   1.95170     -3.960602     -3.960603
   1.91301     -4.011000     -4.011000
   1.87432     -4.044863     -4.044863
   1.83563     -4.064956     -4.064956
   1.79694     -4.070389     -4.070389
   1.79694     -4.070389     -4.070389
   1.77759     -4.072783     -4.072784
   1.75825     -4.072415     -4.072415
   1.73890     -4.067926     -4.067926
   1.71956     -4.057247     -4.057248
   1.70021     -4.037289     -4.037290
   1.68087     -4.004322     -4.004323
   1.66152     -3.955503     -3.955503
   1.64218     -3.890839     -3.890840
   1.62283     -3.813305     -3.813306
   1.60349     -3.728405     -3.728405
   1.58414     -3.661304     -3.661304
   1.56480     -3.658593     -3.658593
   1.54545     -3.669540     -3.669541
   1.52611     -3.680753     -3.680753
   1.50676     -3.690616     -3.690617
   1.48742     -3.698686     -3.698686
   1.46807     -3.704764     -3.704764
   1.44873     -3.708779     -3.708780
   1.42939     -3.710713     -3.710714
   1.41004     -3.710619     -3.710620
   1.39070     -3.708589     -3.708589
   1.37135     -3.704773     -3.704774
   1.35201     -3.699398     -3.699399
   1.33266     -3.692706     -3.692706
   1.31332     -3.684980     -3.684980
   1.29397     -3.676618     -3.676618
   1.27463     -3.667978     -3.667979
   1.25528     -3.665946     -3.665947
   1.23594     -3.664344     -3.664344
   1.21659     -3.662712     -3.662712
   1.19725     -3.661237     -3.661238
   1.17790     -3.660070     -3.660071
   1.15856     -3.659326     -3.659326
   1.13921     -3.659072     -3.659072
   1.13921     -3.659072     -3.659072
   1.10571     -3.656495     -3.656495
   1.07220     -3.648774     -3.648775
   1.03869     -3.635944     -3.635945
   1.00519     -3.618011     -3.618012
   0.97168     -3.595034     -3.595035
   0.93818     -3.567083     -3.567084
   0.90467     -3.534230     -3.534231
   0.87116     -3.496600     -3.496600
   0.83766     -3.454293     -3.454294
   0.80415     -3.407481     -3.407481
   0.77064     -3.356332     -3.356332
   0.73714     -3.301013     -3.301014
   0.70363     -3.241764     -3.241764
   0.67013     -3.178820     -3.178820
   0.63662     -3.112472     -3.112473
   0.60311     -3.043047     -3.043048
   0.56961     -2.970916     -2.970916
   0.53610     -2.896499     -2.896500
   0.50259     -2.820288     -2.820289
   0.46909     -2.742834     -2.742835
   0.43558     -2.665013     -2.665014
   0.40208     -2.636085     -2.636085
   0.36857     -2.700145     -2.700145
   0.33506     -2.760464     -2.760464
   0.30156     -2.816531     -2.816530
   0.26805     -2.860838     -2.860837
   0.23454     -2.908084     -2.908084
   0.20104     -2.949759     -2.949759
   0.16753     -2.907470     -2.907471
   0.13403     -2.828970     -2.828971
   0.10052     -2.760223     -2.760224
   0.06701     -2.705221     -2.705222
   0.03351     -2.668962     -2.668963
   0.00000     -2.656192     -2.656193
 
# Band-Index:   17
   0.00000     -2.656031     -2.656032
   0.03351     -2.668800     -2.668801
   0.06701     -2.705054     -2.705055
   0.10052     -2.760046     -2.760047
   0.13403     -2.828754     -2.828755
   0.16753     -2.907217     -2.907218
   0.20104     -2.945656     -2.945656
   0.23454     -2.904160     -2.904159
   0.26805     -2.857069     -2.857069
   0.30156     -2.808375     -2.808375
   0.33506     -2.751110     -2.751109
   0.36857     -2.689607     -2.689606
   0.40208     -2.626066     -2.626065
   0.43558     -2.662464     -2.662464
   0.46909     -2.740350     -2.740351
   0.50259     -2.817989     -2.817989
   0.53610     -2.894417     -2.894418
   0.56961     -2.969018     -2.969018
   0.60311     -3.041330     -3.041331
   0.63662     -3.110924     -3.110924
   0.67013     -3.177433     -3.177433
   0.70363     -3.240515     -3.240515
   0.73714     -3.299894     -3.299894
   0.77064     -3.355344     -3.355344
   0.80415     -3.406612     -3.406612
   0.83766     -3.453518     -3.453518
   0.87116     -3.495925     -3.495926
   0.90467     -3.533642     -3.533642
   0.93818     -3.566564     -3.566564
   0.97168     -3.594592     -3.594592
   1.00519     -3.617642     -3.617642
   1.03869     -3.635640     -3.635641
   1.07220     -3.648528     -3.648529
   1.10571     -3.656283     -3.656284
   1.13921     -3.658874     -3.658875
   1.13921     -3.658874     -3.658875
   1.15856     -3.659128     -3.659129
   1.17790     -3.659873     -3.659873
   1.19725     -3.661040     -3.661041
   1.21659     -3.662515     -3.662516
   1.23594     -3.664147     -3.664148
   1.25528     -3.665751     -3.665752
   1.27463     -3.667329     -3.667330
   1.29397     -3.668321     -3.668321
   1.31332     -3.668705     -3.668705
   1.33266     -3.668308     -3.668308
   1.35201     -3.666965     -3.666965
   1.37135     -3.664528     -3.664529
   1.39070     -3.660902     -3.660902
   1.41004     -3.656021     -3.656021
   1.42939     -3.649836     -3.649836
   1.44873     -3.642369     -3.642369
   1.46807     -3.633684     -3.633685
   1.48742     -3.623914     -3.623915
   1.50676     -3.613281     -3.613281
   1.52611     -3.602209     -3.602209
   1.54545     -3.591591     -3.591591
   1.56480     -3.583754     -3.583754
   1.58414     -3.596802     -3.596802
   1.60349     -3.623022     -3.623022
   1.62283     -3.692678     -3.692679
   1.64218     -3.769573     -3.769574
   1.66152     -3.842564     -3.842564
   1.68087     -3.907328     -3.907328
   1.70021     -3.961430     -3.961430
   1.71956     -4.003669     -4.003669
   1.73890     -4.034168     -4.034168
   1.75825     -4.054216     -4.054216
   1.77759     -4.065664     -4.065665
   1.79694     -4.070300     -4.070301
   1.79694     -4.070300     -4.070301
   1.83563     -4.064794     -4.064795
   1.87432     -4.044709     -4.044710
   1.91301     -4.010894     -4.010894
   1.95170     -3.958747     -3.958747
   1.99039     -3.881843     -3.881843
   2.02908     -3.784093     -3.784093
   2.06776     -3.736801     -3.736801
   2.10645     -3.762226     -3.762227
   2.14514     -3.787588     -3.787589
   2.18383     -3.807287     -3.807288
   2.22252     -3.821501     -3.821501
   2.26121     -3.830338     -3.830339
   2.29990     -3.832674     -3.832675
   2.33859     -3.825990     -3.825990
   2.37728     -3.806476     -3.806476
   2.41597     -3.769040     -3.769040
   2.45466     -3.707258     -3.707258
   2.49335     -3.615222     -3.615223
   2.53204     -3.493006     -3.493007
   2.57073     -3.348767     -3.348768
   2.60942     -3.192918     -3.192919
   2.64811     -3.033672     -3.033672
   2.68680     -2.876756     -2.876756
   2.72549     -2.726797     -2.726797
   2.76418     -2.744914     -2.744913
   2.80287     -2.806335     -2.806334
   2.84156     -2.856800     -2.856799
   2.88025     -2.909251     -2.909251
   2.91894     -2.955113     -2.955113
   2.95763     -2.875253     -2.875254
   2.99632     -2.790249     -2.790250
   3.03501     -2.720290     -2.720291
   3.07370     -2.672975     -2.672976
   3.11239     -2.656031     -2.656032
 
# Band-Index:   18
   3.11239     -1.979042     -1.979043
   3.07370     -2.006651     -2.006651
   3.03501     -2.080012     -2.080013
   2.99632     -2.182010     -2.182011
   2.95763     -2.299913     -2.299913
   2.91894     -2.426121     -2.426121
   2.88025     -2.556105     -2.556105
   2.84156     -2.687017     -2.687018
   2.80287     -2.797899     -2.797899
   2.76418     -2.736418     -2.736417
   2.72549     -2.721787     -2.721788
   2.68680     -2.861386     -2.861386
   2.64811     -3.001390     -3.001390
   2.60942     -3.133939     -3.133939
   2.57073     -3.252082     -3.252082
   2.53204     -3.352234     -3.352235
   2.49335     -3.434616     -3.434616
   2.45466     -3.501011     -3.501011
   2.41597     -3.553196     -3.553196
   2.37728     -3.592515     -3.592515
   2.33859     -3.619915     -3.619916
   2.29990     -3.636148     -3.636148
   2.26121     -3.641965     -3.641965
   2.22252     -3.638181     -3.638181
   2.18383     -3.625733     -3.625733
   2.14514     -3.605851     -3.605851
   2.10645     -3.580908     -3.580908
   2.06776     -3.633550     -3.633550
   2.02908     -3.764130     -3.764130
   1.99039     -3.877720     -3.877720
   1.95170     -3.958607     -3.958608
   1.91301     -4.010713     -4.010714
   1.87432     -4.040463     -4.040463
   1.83563     -4.059089     -4.059090
   1.79694     -4.070106     -4.070107
   1.79694     -4.070106     -4.070107
   1.77759     -4.065495     -4.065496
   1.75825     -4.054048     -4.054048
   1.73890     -4.034001     -4.034002
   1.71956     -4.003504     -4.003504
   1.70021     -3.961268     -3.961268
   1.68087     -3.907169     -3.907170
   1.66152     -3.842411     -3.842412
   1.64218     -3.769433     -3.769434
   1.62283     -3.692567     -3.692567
   1.60349     -3.622983     -3.622983
   1.58414     -3.586806     -3.586807
   1.56480     -3.583579     -3.583580
   1.54545     -3.591405     -3.591406
   1.52611     -3.602020     -3.602020
   1.50676     -3.613090     -3.613091
   1.48742     -3.623723     -3.623724
   1.46807     -3.633493     -3.633493
   1.44873     -3.642177     -3.642178
   1.42939     -3.649643     -3.649644
   1.41004     -3.655828     -3.655828
   1.39070     -3.660708     -3.660709
   1.37135     -3.664334     -3.664335
   1.35201     -3.666770     -3.666771
   1.33266     -3.668112     -3.668113
   1.31332     -3.668509     -3.668509
   1.29397     -3.668124     -3.668124
   1.27463     -3.667118     -3.667119
   1.25528     -3.659374     -3.659374
   1.23594     -3.651284     -3.651285
   1.21659     -3.644038     -3.644038
   1.19725     -3.637981     -3.637981
   1.17790     -3.633435     -3.633435
   1.15856     -3.630612     -3.630612
   1.13921     -3.629655     -3.629655
   1.13921     -3.629655     -3.629655
   1.10571     -3.627086     -3.627086
   1.07220     -3.619388     -3.619388
   1.03869     -3.606588     -3.606588
   1.00519     -3.588713     -3.588714
   0.97168     -3.565826     -3.565826
   0.93818     -3.537992     -3.537993
   0.90467     -3.505296     -3.505296
   0.87116     -3.467833     -3.467834
   0.83766     -3.425744     -3.425744
   0.80415     -3.379166     -3.379166
   0.77064     -3.328278     -3.328279
   0.73714     -3.273242     -3.273242
   0.70363     -3.214314     -3.214314
   0.67013     -3.151744     -3.151745
   0.63662     -3.085795     -3.085795
   0.60311     -3.016791     -3.016792
   0.56961     -2.945123     -2.945124
   0.53610     -2.871205     -2.871205
   0.50259     -2.795493     -2.795493
   0.46909     -2.718546     -2.718547
   0.43558     -2.640973     -2.640974
   0.40208     -2.622431     -2.622431
   0.36857     -2.686117     -2.686117
   0.33506     -2.747574     -2.747573
   0.30156     -2.804733     -2.804732
   0.26805     -2.709546     -2.709547
   0.23454     -2.584792     -2.584793
   0.20104     -2.463646     -2.463647
   0.16753     -2.347443     -2.347444
   0.13403     -2.238280     -2.238280
   0.10052     -2.139582     -2.139582
   0.06701     -2.057114     -2.057114
   0.03351     -1.999946     -1.999946
   0.00000     -1.979042     -1.979043
 
# Band-Index:   19
   0.00000     -1.979042     -1.979043
   0.03351     -1.984559     -1.984560
   0.06701     -2.000945     -2.000945
   0.10052     -2.027776     -2.027776
   0.13403     -2.064339     -2.064340
   0.16753     -2.109751     -2.109752
   0.20104     -2.163018     -2.163018
   0.23454     -2.222986     -2.222987
   0.26805     -2.288568     -2.288569
   0.30156     -2.358627     -2.358628
   0.33506     -2.432099     -2.432099
   0.36857     -2.507899     -2.507899
   0.40208     -2.583549     -2.583550
   0.43558     -2.568707     -2.568706
   0.46909     -2.498882     -2.498881
   0.50259     -2.427103     -2.427102
   0.53610     -2.354114     -2.354114
   0.56961     -2.280648     -2.280648
   0.60311     -2.207473     -2.207473
   0.63662     -2.146332     -2.146333
   0.67013     -2.199669     -2.199670
   0.70363     -2.250771     -2.250772
   0.73714     -2.298827     -2.298828
   0.77064     -2.343234     -2.343235
   0.80415     -2.383581     -2.383582
   0.83766     -2.419631     -2.419632
   0.87116     -2.451316     -2.451316
   0.90467     -2.478697     -2.478698
   0.93818     -2.501907     -2.501908
   0.97168     -2.521124     -2.521125
   1.00519     -2.536557     -2.536558
   1.03869     -2.548363     -2.548363
   1.07220     -2.556685     -2.556686
   1.10571     -2.561631     -2.561632
   1.13921     -2.563272     -2.563273
   1.13921     -2.563272     -2.563273
   1.15856     -2.562480     -2.562480
   1.17790     -2.560147     -2.560148
   1.19725     -2.556385     -2.556386
   1.21659     -2.551377     -2.551378
   1.23594     -2.545349     -2.545350
   1.25528     -2.538577     -2.538578
   1.27463     -2.531378     -2.531378
   1.29397     -2.524090     -2.524091
   1.31332     -2.517130     -2.517131
   1.33266     -2.511054     -2.511054
   1.35201     -2.506983     -2.506984
   1.37135     -2.509405     -2.509406
   1.39070     -2.547801     -2.547801
   1.41004     -2.641621     -2.641621
   1.42939     -2.748891     -2.748891
   1.44873     -2.859362     -2.859362
   1.46807     -2.970952     -2.970952
   1.48742     -3.082706     -3.082707
   1.50676     -3.193858     -3.193858
   1.52611     -3.303617     -3.303617
   1.54545     -3.410899     -3.410899
   1.56480     -3.513398     -3.513398
   1.58414     -3.586682     -3.586682
   1.60349     -3.609063     -3.609064
   1.62283     -3.594927     -3.594927
   1.64218     -3.576939     -3.576939
   1.66152     -3.557560     -3.557560
   1.68087     -3.537592     -3.537592
   1.70021     -3.517569     -3.517570
   1.71956     -3.497988     -3.497989
   1.73890     -3.479355     -3.479355
   1.75825     -3.462200     -3.462200
   1.77759     -3.447059     -3.447059
   1.79694     -3.434553     -3.434553
   1.79694     -3.434553     -3.434553
   1.83563     -3.453538     -3.453538
   1.87432     -3.486595     -3.486595
   1.91301     -3.529729     -3.529730
   1.95170     -3.578021     -3.578022
   1.99039     -3.626377     -3.626377
   2.02908     -3.666405     -3.666405
   2.06776     -3.631549     -3.631549
   2.10645     -3.506484     -3.506484
   2.14514     -3.369438     -3.369438
   2.18383     -3.230442     -3.230442
   2.22252     -3.093058     -3.093058
   2.26121     -2.959949     -2.959949
   2.29990     -2.833854     -2.833854
   2.33859     -2.718157     -2.718157
   2.37728     -2.617036     -2.617035
   2.41597     -2.535404     -2.535404
   2.45466     -2.478107     -2.478107
   2.49335     -2.448198     -2.448198
   2.53204     -2.445500     -2.445500
   2.57073     -2.466555     -2.466554
   2.60942     -2.505975     -2.505975
   2.64811     -2.558076     -2.558075
   2.68680     -2.617793     -2.617792
   2.72549     -2.680533     -2.680532
   2.76418     -2.585969     -2.585969
   2.80287     -2.461047     -2.461047
   2.84156     -2.348401     -2.348401
   2.88025     -2.249841     -2.249841
   2.91894     -2.166364     -2.166364
   2.95763     -2.098362     -2.098363
   2.99632     -2.045847     -2.045847
   3.03501     -2.008614     -2.008614
   3.07370     -1.986417     -1.986417
   3.11239     -1.979042     -1.979043
 
# Band-Index:   20
   3.11239     -1.968249     -1.968249
   3.07370     -1.975666     -1.975666
   3.03501     -1.997817     -1.997818
   2.99632     -2.035060     -2.035061
   2.95763     -2.087782     -2.087783
   2.91894     -2.156318     -2.156318
   2.88025     -2.240790     -2.240790
   2.84156     -2.340976     -2.340977
   2.80287     -2.456175     -2.456175
   2.76418     -2.585078     -2.585078
   2.72549     -2.680345     -2.680344
   2.68680     -2.617595     -2.617594
   2.64811     -2.557878     -2.557877
   2.60942     -2.505778     -2.505777
   2.57073     -2.466358     -2.466358
   2.53204     -2.445305     -2.445304
   2.49335     -2.448004     -2.448004
   2.45466     -2.477914     -2.477914
   2.41597     -2.535212     -2.535212
   2.37728     -2.616844     -2.616844
   2.33859     -2.717966     -2.717966
   2.29990     -2.833664     -2.833664
   2.26121     -2.959759     -2.959759
   2.22252     -3.092869     -3.092869
   2.18383     -3.230254     -3.230254
   2.14514     -3.369251     -3.369251
   2.10645     -3.506299     -3.506299
   2.06776     -3.631361     -3.631362
   2.02908     -3.666288     -3.666289
   1.99039     -3.626236     -3.626236
   1.95170     -3.577869     -3.577869
   1.91301     -3.529571     -3.529572
   1.87432     -3.486434     -3.486434
   1.83563     -3.453376     -3.453377
   1.79694     -3.434481     -3.434481
   1.79694     -3.434481     -3.434481
   1.77759     -3.430903     -3.430903
   1.75825     -3.431144     -3.431144
   1.73890     -3.434933     -3.434934
   1.71956     -3.441782     -3.441782
   1.70021     -3.451082     -3.451083
   1.68087     -3.462108     -3.462108
   1.66152     -3.473963     -3.473964
   1.64218     -3.485305     -3.485305
   1.62283     -3.493141     -3.493141
   1.60349     -3.487518     -3.487519
   1.58414     -3.443505     -3.443505
   1.56480     -3.361985     -3.361985
   1.54545     -3.265926     -3.265926
   1.52611     -3.164012     -3.164013
   1.50676     -3.059062     -3.059063
   1.48742     -2.952423     -2.952423
   1.46807     -2.844957     -2.844957
   1.44873     -2.737344     -2.737344
   1.42939     -2.630179     -2.630180
   1.41004     -2.524067     -2.524067
   1.39070     -2.462365     -2.462365
   1.37135     -2.397616     -2.397616
   1.35201     -2.300314     -2.300314
   1.33266     -2.286912     -2.286912
   1.31332     -2.284273     -2.284274
   1.29397     -2.282816     -2.282817
   1.27463     -2.282200     -2.282201
   1.25528     -2.282190     -2.282190
   1.23594     -2.282576     -2.282577
   1.21659     -2.283175     -2.283176
   1.19725     -2.283823     -2.283824
   1.17790     -2.284384     -2.284385
   1.15856     -2.284766     -2.284767
   1.13921     -2.284903     -2.284904
   1.13921     -2.284903     -2.284904
   1.10571     -2.297435     -2.297436
   1.07220     -2.306254     -2.306254
   1.03869     -2.311160     -2.311160
   1.00519     -2.312010     -2.312011
   0.97168     -2.308644     -2.308644
   0.93818     -2.300922     -2.300922
   0.90467     -2.288650     -2.288650
   0.87116     -2.271693     -2.271693
   0.83766     -2.249975     -2.249976
   0.80415     -2.223517     -2.223518
   0.77064     -2.192459     -2.192459
   0.73714     -2.157146     -2.157147
   0.70363     -2.118108     -2.118109
   0.67013     -2.076065     -2.076066
   0.63662     -2.135349     -2.135349
   0.60311     -2.180604     -2.180604
   0.56961     -2.256646     -2.256646
   0.53610     -2.332727     -2.332727
   0.50259     -2.408056     -2.408055
   0.46909     -2.481856     -2.481855
   0.43558     -2.553037     -2.553036
   0.40208     -2.579913     -2.579913
   0.36857     -2.504172     -2.504173
   0.33506     -2.428053     -2.428053
   0.30156     -2.354177     -2.354177
   0.26805     -2.283647     -2.283648
   0.23454     -2.217540     -2.217541
   0.20104     -2.156989     -2.156989
   0.16753     -2.103092     -2.103093
   0.13403     -2.056957     -2.056957
   0.10052     -2.019613     -2.019613
   0.06701     -1.991941     -1.991942
   0.03351     -1.974640     -1.974640
   0.00000     -1.968249     -1.968249
 
# Band-Index:   21
   0.00000     -1.968249     -1.968249
   0.03351     -1.972643     -1.972643
   0.06701     -1.987972     -1.987973
   0.10052     -2.013727     -2.013727
   0.13403     -2.049226     -2.049227
   0.16753     -2.093590     -2.093590
   0.20104     -2.145811     -2.145811
   0.23454     -2.204801     -2.204801
   0.26805     -2.269438     -2.269439
   0.30156     -2.338634     -2.338634
   0.33506     -2.411318     -2.411318
   0.36857     -2.486531     -2.486532
   0.40208     -2.563303     -2.563304
   0.43558     -2.550273     -2.550273
   0.46909     -2.478959     -2.478958
   0.50259     -2.405196     -2.405196
   0.53610     -2.329905     -2.329905
   0.56961     -2.253893     -2.253892
   0.60311     -2.177919     -2.177919
   0.63662     -2.105348     -2.105347
   0.67013     -2.065031     -2.065031
   0.70363     -1.997271     -1.997270
   0.73714     -1.932754     -1.932753
   0.77064     -1.902899     -1.902900
   0.80415     -1.956477     -1.956478
   0.83766     -2.006166     -2.006167
   0.87116     -2.051995     -2.051995
   0.90467     -2.094010     -2.094011
   0.93818     -2.132263     -2.132264
   0.97168     -2.166800     -2.166801
   1.00519     -2.197663     -2.197664
   1.03869     -2.224890     -2.224891
   1.07220     -2.248496     -2.248496
   1.10571     -2.268486     -2.268486
   1.13921     -2.284737     -2.284738
   1.13921     -2.284737     -2.284738
   1.15856     -2.284600     -2.284601
   1.17790     -2.284218     -2.284219
   1.19725     -2.283657     -2.283658
   1.21659     -2.283009     -2.283010
   1.23594     -2.282410     -2.282411
   1.25528     -2.282023     -2.282024
   1.27463     -2.282034     -2.282034
   1.29397     -2.282648     -2.282649
   1.31332     -2.284105     -2.284106
   1.33266     -2.286742     -2.286742
   1.35201     -2.291704     -2.291705
   1.37135     -2.322174     -2.322174
   1.39070     -2.419825     -2.419825
   1.41004     -2.523894     -2.523894
   1.42939     -2.630004     -2.630004
   1.44873     -2.737167     -2.737167
   1.46807     -2.844779     -2.844779
   1.48742     -2.952244     -2.952245
   1.50676     -3.058883     -3.058884
   1.52611     -3.163834     -3.163834
   1.54545     -3.265749     -3.265750
   1.56480     -3.361818     -3.361819
   1.58414     -3.443387     -3.443387
   1.60349     -3.487474     -3.487475
   1.62283     -3.493024     -3.493025
   1.64218     -3.485161     -3.485161
   1.66152     -3.473809     -3.473809
   1.68087     -3.461949     -3.461949
   1.70021     -3.450921     -3.450921
   1.71956     -3.441619     -3.441619
   1.73890     -3.434770     -3.434771
   1.75825     -3.430981     -3.430981
   1.77759     -3.430740     -3.430740
   1.79694     -3.434281     -3.434281
   1.79694     -3.434281     -3.434281
   1.83563     -3.418512     -3.418512
   1.87432     -3.416622     -3.416623
   1.91301     -3.428326     -3.428326
   1.95170     -3.450913     -3.450914
   1.99039     -3.480597     -3.480598
   2.02908     -3.513497     -3.513497
   2.06776     -3.545323     -3.545323
   2.10645     -3.488357     -3.488357
   2.14514     -3.346272     -3.346272
   2.18383     -3.203326     -3.203326
   2.22252     -3.063036     -3.063036
   2.26121     -2.927929     -2.927929
   2.29990     -2.800813     -2.800813
   2.33859     -2.685092     -2.685091
   2.37728     -2.585018     -2.585018
   2.41597     -2.505420     -2.505420
   2.45466     -2.450888     -2.450888
   2.49335     -2.424150     -2.424149
   2.53204     -2.424686     -2.424686
   2.57073     -2.448781     -2.448781
   2.60942     -2.490870     -2.490870
   2.64811     -2.545179     -2.545179
   2.68680     -2.606639     -2.606639
   2.72549     -2.670640     -2.670640
   2.76418     -2.584869     -2.584869
   2.80287     -2.455975     -2.455976
   2.84156     -2.340777     -2.340778
   2.88025     -2.240591     -2.240591
   2.91894     -2.156118     -2.156119
   2.95763     -2.087583     -2.087584
   2.99632     -2.034861     -2.034861
   3.03501     -1.997618     -1.997619
   3.07370     -1.975468     -1.975468
   3.11239     -1.968249     -1.968249
 
# Band-Index:   22
   3.11239     -1.968049     -1.968050
   3.07370     -1.957087     -1.957087
   3.03501     -1.927143     -1.927144
   2.99632     -1.885476     -1.885476
   2.95763     -1.838778     -1.838779
   2.91894     -1.791696     -1.791697
   2.88025     -1.747078     -1.747078
   2.84156     -1.706626     -1.706627
   2.80287     -1.671322     -1.671323
   2.76418     -1.641788     -1.641789
   2.72549     -1.618458     -1.618459
   2.68680     -1.601657     -1.601658
   2.64811     -1.591662     -1.591663
   2.60942     -1.588707     -1.588707
   2.57073     -1.593013     -1.593014
   2.53204     -1.604854     -1.604855
   2.49335     -1.624643     -1.624644
   2.45466     -1.652842     -1.652843
   2.41597     -1.689613     -1.689613
   2.37728     -1.734526     -1.734527
   2.33859     -1.786730     -1.786731
   2.29990     -1.845294     -1.845295
   2.26121     -1.909315     -1.909316
   2.22252     -1.977882     -1.977883
   2.18383     -2.050078     -2.050079
   2.14514     -2.124879     -2.124879
   2.10645     -2.201159     -2.201160
   2.06776     -2.277597     -2.277598
   2.02908     -2.358961     -2.358962
   1.99039     -2.438389     -2.438390
   1.95170     -2.508208     -2.508208
   1.91301     -2.565228     -2.565229
   1.87432     -2.606265     -2.606266
   1.83563     -2.629323     -2.629324
   1.79694     -2.634859     -2.634859
   1.79694     -2.634859     -2.634859
   1.77759     -2.633049     -2.633050
   1.75825     -2.626623     -2.626624
   1.73890     -2.616623     -2.616624
   1.71956     -2.605849     -2.605850
   1.70021     -2.593705     -2.593705
   1.68087     -2.580721     -2.580722
   1.66152     -2.567362     -2.567363
   1.64218     -2.554053     -2.554054
   1.62283     -2.541155     -2.541155
   1.60349     -2.528968     -2.528969
   1.58414     -2.517752     -2.517753
   1.56480     -2.507707     -2.507708
   1.54545     -2.498987     -2.498987
   1.52611     -2.491712     -2.491713
   1.50676     -2.485922     -2.485923
   1.48742     -2.481642     -2.481642
   1.46807     -2.478800     -2.478801
   1.44873     -2.477223     -2.477224
   1.42939     -2.476422     -2.476423
   1.41004     -2.474758     -2.474759
   1.39070     -2.419657     -2.419658
   1.37135     -2.322043     -2.322043
   1.35201     -2.291531     -2.291532
   1.33266     -2.200309     -2.200309
   1.31332     -2.102424     -2.102425
   1.29397     -2.008199     -2.008200
   1.27463     -1.918629     -1.918629
   1.25528     -1.834696     -1.834696
   1.23594     -1.757553     -1.757553
   1.21659     -1.688670     -1.688670
   1.19725     -1.630028     -1.630029
   1.17790     -1.584326     -1.584326
   1.15856     -1.554818     -1.554819
   1.13921     -1.544557     -1.544557
   1.13921     -1.544557     -1.544557
   1.10571     -1.547217     -1.547217
   1.07220     -1.555214     -1.555214
   1.03869     -1.568604     -1.568604
   1.00519     -1.587444     -1.587444
   0.97168     -1.611779     -1.611780
   0.93818     -1.641666     -1.641666
   0.90467     -1.677118     -1.677118
   0.87116     -1.718062     -1.718062
   0.83766     -1.764364     -1.764364
   0.80415     -1.815802     -1.815802
   0.77064     -1.872085     -1.872085
   0.73714     -1.892062     -1.892062
   0.70363     -1.960335     -1.960335
   0.67013     -2.031673     -2.031673
   0.63662     -2.102748     -2.102748
   0.60311     -2.091716     -2.091717
   0.56961     -2.036961     -2.036962
   0.53610     -1.983361     -1.983362
   0.50259     -1.932346     -1.932347
   0.46909     -1.885487     -1.885487
   0.43558     -1.844387     -1.844388
   0.40208     -1.810588     -1.810589
   0.36857     -1.785434     -1.785434
   0.33506     -1.769938     -1.769938
   0.30156     -1.764693     -1.764694
   0.26805     -1.769725     -1.769725
   0.23454     -1.784505     -1.784505
   0.20104     -1.807879     -1.807879
   0.16753     -1.838070     -1.838071
   0.13403     -1.872499     -1.872499
   0.10052     -1.907650     -1.907650
   0.06701     -1.938935     -1.938935
   0.03351     -1.960806     -1.960806
   0.00000     -1.968049     -1.968050
 
# Band-Index:   23
   0.00000     -1.968049     -1.968050
   0.03351     -1.958781     -1.958781
   0.06701     -1.934823     -1.934824
   0.10052     -1.901239     -1.901240
   0.13403     -1.863438     -1.863439
   0.16753     -1.825928     -1.825929
   0.20104     -1.792108     -1.792109
   0.23454     -1.764467     -1.764468
   0.26805     -1.744765     -1.744766
   0.30156     -1.734103     -1.734103
   0.33506     -1.733015     -1.733016
   0.36857     -1.741491     -1.741491
   0.40208     -1.759015     -1.759016
   0.43558     -1.784636     -1.784637
   0.46909     -1.817111     -1.817112
   0.50259     -1.854994     -1.854995
   0.53610     -1.896805     -1.896806
   0.56961     -1.941080     -1.941081
   0.60311     -1.986506     -1.986507
   0.63662     -2.031858     -2.031859
   0.67013     -2.029160     -2.029159
   0.70363     -1.957914     -1.957914
   0.73714     -1.889740     -1.889740
   0.77064     -1.827512     -1.827512
   0.80415     -1.767279     -1.767279
   0.83766     -1.711891     -1.711891
   0.87116     -1.661736     -1.661737
   0.90467     -1.617136     -1.617136
   0.93818     -1.578299     -1.578299
   0.97168     -1.545372     -1.545372
   1.00519     -1.518419     -1.518419
   1.03869     -1.497451     -1.497451
   1.07220     -1.482475     -1.482475
   1.10571     -1.473462     -1.473463
   1.13921     -1.470438     -1.470438
   1.13921     -1.470438     -1.470438
   1.15856     -1.481969     -1.481969
   1.17790     -1.514104     -1.514104
   1.19725     -1.561908     -1.561909
   1.21659     -1.621176     -1.621177
   1.23594     -1.689158     -1.689159
   1.25528     -1.764173     -1.764173
   1.27463     -1.845070     -1.845070
   1.29397     -1.931030     -1.931031
   1.31332     -2.021363     -2.021364
   1.33266     -2.115376     -2.115376
   1.35201     -2.211755     -2.211755
   1.37135     -2.286589     -2.286590
   1.39070     -2.298155     -2.298156
   1.41004     -2.306612     -2.306613
   1.42939     -2.316274     -2.316275
   1.44873     -2.327539     -2.327539
   1.46807     -2.340517     -2.340518
   1.48742     -2.355234     -2.355235
   1.50676     -2.371649     -2.371650
   1.52611     -2.389679     -2.389680
   1.54545     -2.409191     -2.409192
   1.56480     -2.430000     -2.430000
   1.58414     -2.451853     -2.451854
   1.60349     -2.474472     -2.474473
   1.62283     -2.497506     -2.497507
   1.64218     -2.520517     -2.520518
   1.66152     -2.543023     -2.543024
   1.68087     -2.564465     -2.564465
   1.70021     -2.584205     -2.584206
   1.71956     -2.601594     -2.601595
   1.73890     -2.615944     -2.615945
   1.75825     -2.626463     -2.626463
   1.77759     -2.632886     -2.632887
   1.79694     -2.634763     -2.634764
   1.79694     -2.634763     -2.634764
   1.83563     -2.623685     -2.623686
   1.87432     -2.593840     -2.593841
   1.91301     -2.548219     -2.548220
   1.95170     -2.490568     -2.490569
   1.99039     -2.424413     -2.424413
   2.02908     -2.352643     -2.352643
   2.06776     -2.277424     -2.277425
   2.10645     -2.200985     -2.200985
   2.14514     -2.124705     -2.124706
   2.18383     -2.049904     -2.049905
   2.22252     -1.977710     -1.977710
   2.26121     -1.909143     -1.909144
   2.29990     -1.845122     -1.845123
   2.33859     -1.786558     -1.786558
   2.37728     -1.734353     -1.734354
   2.41597     -1.689439     -1.689440
   2.45466     -1.652668     -1.652669
   2.49335     -1.624468     -1.624469
   2.53204     -1.604678     -1.604679
   2.57073     -1.592837     -1.592838
   2.60942     -1.588530     -1.588531
   2.64811     -1.591485     -1.591486
   2.68680     -1.601479     -1.601480
   2.72549     -1.618279     -1.618279
   2.76418     -1.641608     -1.641609
   2.80287     -1.671141     -1.671142
   2.84156     -1.706443     -1.706444
   2.88025     -1.746893     -1.746894
   2.91894     -1.791510     -1.791510
   2.95763     -1.838589     -1.838590
   2.99632     -1.885284     -1.885285
   3.03501     -1.926949     -1.926950
   3.07370     -1.956891     -1.956891
   3.11239     -1.968049     -1.968050
 
# Band-Index:   24
   3.11239     -1.350472     -1.350473
   3.07370     -1.331298     -1.331299
   3.03501     -1.283252     -1.283253
   2.99632     -1.223391     -1.223392
   2.95763     -1.164254     -1.164254
   2.91894     -1.113003     -1.113004
   2.88025     -1.073370     -1.073371
   2.84156     -1.047027     -1.047028
   2.80287     -1.034270     -1.034271
   2.76418     -1.034595     -1.034596
   2.72549     -1.047004     -1.047005
   2.68680     -1.070326     -1.070327
   2.64811     -1.103374     -1.103375
   2.60942     -1.145102     -1.145103
   2.57073     -1.194620     -1.194621
   2.53204     -1.251461     -1.251462
   2.49335     -1.315242     -1.315243
   2.45466     -1.385308     -1.385309
   2.41597     -1.460939     -1.460939
   2.37728     -1.541499     -1.541500
   2.33859     -1.626350     -1.626351
   2.29990     -1.714802     -1.714803
   2.26121     -1.806129     -1.806130
   2.22252     -1.899522     -1.899522
   2.18383     -1.994044     -1.994045
   2.14514     -2.088625     -2.088625
   2.10645     -2.182013     -2.182014
   2.06776     -2.272735     -2.272736
   2.02908     -2.352466     -2.352467
   1.99039     -2.424237     -2.424237
   1.95170     -2.490392     -2.490393
   1.91301     -2.548044     -2.548045
   1.87432     -2.593666     -2.593667
   1.83563     -2.623512     -2.623513
   1.79694     -2.634570     -2.634571
   1.79694     -2.634570     -2.634571
   1.77759     -2.631641     -2.631642
   1.75825     -2.625398     -2.625398
   1.73890     -2.615766     -2.615767
   1.71956     -2.601424     -2.601425
   1.70021     -2.584037     -2.584038
   1.68087     -2.564297     -2.564298
   1.66152     -2.542856     -2.542857
   1.64218     -2.520350     -2.520351
   1.62283     -2.497339     -2.497340
   1.60349     -2.474305     -2.474306
   1.58414     -2.451687     -2.451688
   1.56480     -2.429833     -2.429834
   1.54545     -2.409025     -2.409026
   1.52611     -2.389513     -2.389514
   1.50676     -2.371484     -2.371485
   1.48742     -2.355069     -2.355070
   1.46807     -2.340353     -2.340354
   1.44873     -2.327375     -2.327375
   1.42939     -2.316111     -2.316112
   1.41004     -2.306451     -2.306451
   1.39070     -2.297998     -2.297998
   1.37135     -2.286447     -2.286448
   1.35201     -2.211561     -2.211561
   1.33266     -2.115188     -2.115188
   1.31332     -2.021178     -2.021178
   1.29397     -1.930845     -1.930846
   1.27463     -1.844885     -1.844885
   1.25528     -1.763989     -1.763989
   1.23594     -1.688973     -1.688974
   1.21659     -1.620991     -1.620991
   1.19725     -1.561722     -1.561723
   1.17790     -1.513917     -1.513917
   1.15856     -1.481781     -1.481781
   1.13921     -1.470250     -1.470250
   1.13921     -1.470250     -1.470250
   1.10571     -1.473152     -1.473152
   1.07220     -1.481941     -1.481941
   1.03869     -1.496697     -1.496698
   1.00519     -1.517445     -1.517445
   0.97168     -1.544182     -1.544182
   0.93818     -1.576901     -1.576901
   0.90467     -1.615555     -1.615555
   0.87116     -1.659978     -1.659978
   0.83766     -1.709974     -1.709974
   0.80415     -1.765207     -1.765207
   0.77064     -1.825310     -1.825310
   0.73714     -1.845425     -1.845426
   0.70363     -1.784138     -1.784139
   0.67013     -1.719265     -1.719265
   0.63662     -1.651210     -1.651211
   0.60311     -1.580687     -1.580688
   0.56961     -1.508638     -1.508638
   0.53610     -1.436337     -1.436338
   0.50259     -1.365359     -1.365360
   0.46909     -1.297524     -1.297525
   0.43558     -1.234953     -1.234954
   0.40208     -1.179911     -1.179912
   0.36857     -1.134706     -1.134706
   0.33506     -1.101488     -1.101489
   0.30156     -1.082004     -1.082005
   0.26805     -1.077359     -1.077360
   0.23454     -1.087789     -1.087790
   0.20104     -1.112536     -1.112537
   0.16753     -1.149783     -1.149784
   0.13403     -1.196525     -1.196526
   0.10052     -1.248208     -1.248209
   0.06701     -1.297988     -1.297989
   0.03351     -1.335912     -1.335913
   0.00000     -1.350472     -1.350473
 
# Band-Index:   25
   0.00000     -0.824229     -0.824228
   0.03351     -0.824158     -0.824157
   0.06701     -0.824019     -0.824018
   0.10052     -0.824061     -0.824061
   0.13403     -0.824703     -0.824702
   0.16753     -0.826515     -0.826514
   0.20104     -0.830242     -0.830241
   0.23454     -0.836785     -0.836784
   0.26805     -0.847165     -0.847164
   0.30156     -0.862479     -0.862478
   0.33506     -0.883828     -0.883827
   0.36857     -0.912164     -0.912163
   0.40208     -0.948128     -0.948127
   0.43558     -0.991848     -0.991847
   0.46909     -1.042800     -1.042799
   0.50259     -1.099699     -1.099698
   0.53610     -1.160576     -1.160575
   0.56961     -1.222927     -1.222926
   0.60311     -1.283855     -1.283854
   0.63662     -1.340355     -1.340354
   0.67013     -1.389509     -1.389508
   0.70363     -1.428695     -1.428694
   0.73714     -1.455839     -1.455838
   0.77064     -1.469577     -1.469576
   0.80415     -1.469442     -1.469441
   0.83766     -1.455961     -1.455960
   0.87116     -1.430578     -1.430577
   0.90467     -1.395537     -1.395536
   0.93818     -1.353657     -1.353657
   0.97168     -1.308133     -1.308132
   1.00519     -1.262274     -1.262274
   1.03869     -1.219286     -1.219285
   1.07220     -1.182096     -1.182096
   1.10571     -1.153196     -1.153196
   1.13921     -1.134533     -1.134533
   1.13921     -1.134533     -1.134533
   1.15856     -1.127669     -1.127669
   1.17790     -1.109479     -1.109478
   1.19725     -1.084723     -1.084722
   1.21659     -1.057290     -1.057290
   1.23594     -1.029509     -1.029509
   1.25528     -1.002569     -1.002568
   1.27463     -0.976999     -0.976999
   1.29397     -0.952957     -0.952957
   1.31332     -0.930378     -0.930377
   1.33266     -0.909094     -0.909093
   1.35201     -0.888864     -0.888864
   1.37135     -0.869409     -0.869409
   1.39070     -0.850439     -0.850439
   1.41004     -0.831680     -0.831680
   1.42939     -0.812865     -0.812864
   1.44873     -0.793756     -0.793755
   1.46807     -0.774150     -0.774149
   1.48742     -0.753885     -0.753884
   1.50676     -0.732842     -0.732841
   1.52611     -0.710951     -0.710950
   1.54545     -0.688200     -0.688199
   1.56480     -0.664637     -0.664636
   1.58414     -0.640384     -0.640383
   1.60349     -0.615618     -0.615617
   1.62283     -0.590628     -0.590627
   1.64218     -0.565743     -0.565742
   1.66152     -0.541409     -0.541407
   1.68087     -0.518137     -0.518136
   1.70021     -0.496511     -0.496510
   1.71956     -0.477184     -0.477183
   1.73890     -0.460840     -0.460839
   1.75825     -0.448164     -0.448162
   1.77759     -0.439776     -0.439774
   1.79694     -0.436268     -0.436267
   1.79694     -0.436268     -0.436267
   1.83563     -0.450148     -0.450147
   1.87432     -0.484021     -0.484020
   1.91301     -0.535272     -0.535271
   1.95170     -0.599653     -0.599651
   1.99039     -0.672334     -0.672333
   2.02908     -0.748749     -0.748748
   2.06776     -0.831257     -0.831255
   2.10645     -0.911829     -0.911827
   2.14514     -0.987318     -0.987317
   2.18383     -1.055667     -1.055666
   2.22252     -1.115450     -1.115449
   2.26121     -1.165751     -1.165749
   2.29990     -1.205760     -1.205759
   2.33859     -1.234305     -1.234304
   2.37728     -1.249223     -1.249222
   2.41597     -1.247162     -1.247161
   2.45466     -1.230000     -1.229999
   2.49335     -1.209320     -1.209319
   2.53204     -1.172871     -1.172870
   2.57073     -1.124710     -1.124709
   2.60942     -1.070750     -1.070749
   2.64811     -1.016808     -1.016807
   2.68680     -0.967297     -0.967296
   2.72549     -0.924960     -0.924959
   2.76418     -0.891031     -0.891030
   2.80287     -0.865528     -0.865527
   2.84156     -0.847610     -0.847609
   2.88025     -0.835959     -0.835958
   2.91894     -0.829106     -0.829105
   2.95763     -0.825619     -0.825618
   2.99632     -0.824249     -0.824248
   3.03501     -0.823996     -0.823995
   3.07370     -0.824135     -0.824134
   3.11239     -0.824229     -0.824228
 
# Band-Index:   26
   3.11239     -0.055942     -0.055941
   3.07370     -0.060814     -0.060813
   3.03501     -0.075607     -0.075606
   2.99632     -0.100808     -0.100807
   2.95763     -0.137088     -0.137087
   2.91894     -0.185103     -0.185102
   2.88025     -0.245263     -0.245262
   2.84156     -0.317579     -0.317578
   2.80287     -0.401440     -0.401439
   2.76418     -0.495538     -0.495537
   2.72549     -0.597858     -0.597857
   2.68680     -0.705645     -0.705645
   2.64811     -0.815386     -0.815385
   2.60942     -0.922796     -0.922795
   2.57073     -1.022820     -1.022819
   2.53204     -1.109801     -1.109800
   2.49335     -1.178256     -1.178255
   2.45466     -1.224300     -1.224299
   2.41597     -1.246961     -1.246960
   2.37728     -1.249023     -1.249022
   2.33859     -1.234106     -1.234105
   2.29990     -1.205560     -1.205559
   2.26121     -1.165550     -1.165549
   2.22252     -1.115249     -1.115248
   2.18383     -1.055466     -1.055465
   2.14514     -0.987116     -0.987115
   2.10645     -0.911627     -0.911625
   2.06776     -0.831055     -0.831054
   2.02908     -0.748414     -0.748413
   1.99039     -0.666896     -0.666895
   1.95170     -0.590976     -0.590975
   1.91301     -0.525528     -0.525527
   1.87432     -0.475515     -0.475514
   1.83563     -0.445061     -0.445060
   1.79694     -0.436179     -0.436178
   1.79694     -0.436179     -0.436178
   1.77759     -0.439576     -0.439575
   1.75825     -0.447962     -0.447961
   1.73890     -0.460637     -0.460636
   1.71956     -0.476981     -0.476980
   1.70021     -0.496308     -0.496307
   1.68087     -0.517934     -0.517933
   1.66152     -0.541206     -0.541205
   1.64218     -0.565541     -0.565540
   1.62283     -0.590426     -0.590424
   1.60349     -0.615417     -0.615415
   1.58414     -0.640183     -0.640182
   1.56480     -0.664436     -0.664435
   1.54545     -0.688000     -0.687999
   1.52611     -0.710752     -0.710751
   1.50676     -0.732643     -0.732642
   1.48742     -0.753687     -0.753686
   1.46807     -0.773953     -0.773952
   1.44873     -0.793560     -0.793559
   1.42939     -0.812669     -0.812669
   1.41004     -0.831486     -0.831485
   1.39070     -0.850246     -0.850245
   1.37135     -0.869216     -0.869216
   1.35201     -0.888673     -0.888672
   1.33266     -0.908903     -0.908902
   1.31332     -0.930188     -0.930188
   1.29397     -0.952769     -0.952768
   1.27463     -0.976812     -0.976811
   1.25528     -1.002382     -1.002382
   1.23594     -1.029324     -1.029323
   1.21659     -1.057106     -1.057106
   1.19725     -1.084539     -1.084539
   1.17790     -1.109296     -1.109296
   1.15856     -1.127488     -1.127488
   1.13921     -1.134352     -1.134352
   1.13921     -1.134352     -1.134352
   1.10571     -1.126982     -1.126982
   1.07220     -1.131139     -1.131139
   1.03869     -1.146389     -1.146388
   1.00519     -1.171382     -1.171381
   0.97168     -1.204022     -1.204022
   0.93818     -1.241590     -1.241589
   0.90467     -1.280869     -1.280869
   0.87116     -1.318390     -1.318389
   0.83766     -1.350621     -1.350620
   0.80415     -1.374179     -1.374178
   0.77064     -1.386076     -1.386076
   0.73714     -1.383924     -1.383923
   0.70363     -1.366169     -1.366168
   0.67013     -1.332176     -1.332175
   0.63662     -1.282286     -1.282285
   0.60311     -1.217757     -1.217756
   0.56961     -1.140577     -1.140576
   0.53610     -1.053261     -1.053260
   0.50259     -0.958614     -0.958613
   0.46909     -0.859564     -0.859563
   0.43558     -0.758969     -0.758968
   0.40208     -0.659554     -0.659553
   0.36857     -0.563762     -0.563761
   0.33506     -0.473701     -0.473700
   0.30156     -0.391063     -0.391062
   0.26805     -0.317085     -0.317084
   0.23454     -0.252523     -0.252522
   0.20104     -0.197679     -0.197678
   0.16753     -0.152492     -0.152491
   0.13403     -0.116596     -0.116595
   0.10052     -0.089500     -0.089499
   0.06701     -0.070661     -0.070660
   0.03351     -0.059594     -0.059593
   0.00000     -0.055942     -0.055941
 
# Band-Index:   27
   0.00000     -0.055747     -0.055746
   0.03351     -0.059399     -0.059398
   0.06701     -0.070438     -0.070437
   0.10052     -0.089095     -0.089094
   0.13403     -0.115752     -0.115751
   0.16753     -0.150863     -0.150862
   0.20104     -0.194863     -0.194862
   0.23454     -0.248039     -0.248038
   0.26805     -0.310404     -0.310403
   0.30156     -0.381629     -0.381629
   0.33506     -0.460981     -0.460980
   0.36857     -0.547313     -0.547312
   0.40208     -0.639067     -0.639066
   0.43558     -0.734371     -0.734370
   0.46909     -0.831046     -0.831045
   0.50259     -0.926644     -0.926643
   0.53610     -1.018598     -1.018598
   0.56961     -1.104231     -1.104230
   0.60311     -1.180915     -1.180914
   0.63662     -1.246206     -1.246205
   0.67013     -1.298038     -1.298038
   0.70363     -1.334913     -1.334912
   0.73714     -1.356067     -1.356067
   0.77064     -1.361625     -1.361624
   0.80415     -1.352599     -1.352598
   0.83766     -1.330867     -1.330867
   0.87116     -1.298962     -1.298961
   0.90467     -1.259929     -1.259928
   0.93818     -1.217092     -1.217091
   0.97168     -1.173815     -1.173815
   1.00519     -1.133323     -1.133322
   1.03869     -1.098513     -1.098513
   1.07220     -1.071803     -1.071803
   1.10571     -1.055020     -1.055020
   1.13921     -1.049299     -1.049299
   1.13921     -1.049299     -1.049299
   1.15856     -1.044107     -1.044107
   1.17790     -1.029776     -1.029776
   1.19725     -1.009136     -1.009136
   1.21659     -0.985097     -0.985097
   1.23594     -0.959854     -0.959853
   1.25528     -0.934793     -0.934793
   1.27463     -0.910699     -0.910699
   1.29397     -0.887920     -0.887920
   1.31332     -0.866558     -0.866558
   1.33266     -0.846532     -0.846532
   1.35201     -0.827656     -0.827655
   1.37135     -0.809687     -0.809686
   1.39070     -0.792350     -0.792349
   1.41004     -0.775363     -0.775362
   1.42939     -0.758467     -0.758466
   1.44873     -0.741408     -0.741407
   1.46807     -0.723973     -0.723972
   1.48742     -0.706002     -0.706001
   1.50676     -0.687349     -0.687348
   1.52611     -0.667947     -0.667946
   1.54545     -0.647764     -0.647763
   1.56480     -0.626864     -0.626863
   1.58414     -0.605366     -0.605365
   1.60349     -0.583454     -0.583453
   1.62283     -0.561404     -0.561403
   1.64218     -0.539558     -0.539557
   1.66152     -0.518355     -0.518354
   1.68087     -0.498307     -0.498306
   1.70021     -0.479992     -0.479990
   1.71956     -0.464033     -0.464032
   1.73890     -0.451075     -0.451074
   1.75825     -0.441757     -0.441756
   1.77759     -0.436616     -0.436615
   1.79694     -0.435927     -0.435926
   1.79694     -0.435927     -0.435926
   1.83563     -0.444854     -0.444853
   1.87432     -0.475309     -0.475307
   1.91301     -0.525322     -0.525321
   1.95170     -0.590770     -0.590769
   1.99039     -0.666689     -0.666688
   2.02908     -0.748183     -0.748182
   2.06776     -0.824885     -0.824884
   2.10645     -0.897854     -0.897853
   2.14514     -0.965497     -0.965496
   2.18383     -1.026595     -1.026594
   2.22252     -1.080659     -1.080658
   2.26121     -1.127664     -1.127663
   2.29990     -1.167593     -1.167592
   2.33859     -1.199858     -1.199857
   2.37728     -1.222862     -1.222861
   2.41597     -1.233911     -1.233910
   2.45466     -1.224096     -1.224095
   2.49335     -1.178054     -1.178053
   2.53204     -1.109599     -1.109598
   2.57073     -1.022618     -1.022617
   2.60942     -0.922595     -0.922594
   2.64811     -0.815185     -0.815184
   2.68680     -0.705445     -0.705444
   2.72549     -0.597658     -0.597658
   2.76418     -0.495339     -0.495338
   2.80287     -0.401241     -0.401240
   2.84156     -0.317381     -0.317380
   2.88025     -0.245065     -0.245064
   2.91894     -0.184906     -0.184905
   2.95763     -0.136891     -0.136891
   2.99632     -0.100612     -0.100611
   3.03501     -0.075412     -0.075411
   3.07370     -0.060618     -0.060617
   3.11239     -0.055747     -0.055746
 
# Band-Index:   28
   3.11239      2.259086      2.259086
   3.07370      2.259603      2.257180
   3.03501      2.242536      2.239913
   2.99632      2.220639      2.221487
   2.95763      2.191649      2.189815
   2.91894      2.149885      2.149935
   2.88025      2.094215      2.094051
   2.84156      1.976436      1.976439
   2.80287      1.858152      1.858153
   2.76418      1.744959      1.744960
   2.72549      1.640163      1.640164
   2.68680      1.545796      1.545796
   2.64811      1.462822      1.462822
   2.60942      1.391337      1.391337
   2.57073      1.331210      1.331211
   2.53204      1.282588      1.282589
   2.49335      1.246329      1.246330
   2.45466      1.223948      1.223948
   2.41597      1.217148      1.217149
   2.37728      1.227179      1.227180
   2.33859      1.254233      1.254234
   2.29990      1.296855      1.296856
   2.26121      1.351459      1.351460
   2.22252      1.411951      1.411952
   2.18383      1.469572      1.469573
   2.14514      1.513697      1.513698
   2.10645      1.534754      1.534755
   2.06776      1.528413      1.528414
   2.02908      1.497177      1.497178
   1.99039      1.448249      1.448251
   1.95170      1.390717      1.390719
   1.91301      1.333900      1.333902
   1.87432      1.286571      1.286573
   1.83563      1.256061      1.256063
   1.79694      1.247041      1.247043
   1.79694      1.247041      1.247043
   1.77759      1.249518      1.249520
   1.75825      1.257937      1.257939
   1.73890      1.271848      1.271850
   1.71956      1.290635      1.290637
   1.70021      1.313610      1.313612
   1.68087      1.340054      1.340056
   1.66152      1.369252      1.369254
   1.64218      1.400519      1.400521
   1.62283      1.433218      1.433220
   1.60349      1.466763      1.466765
   1.58414      1.500613      1.500615
   1.56480      1.534297      1.534299
   1.54545      1.567382      1.567384
   1.52611      1.599483      1.599485
   1.50676      1.630243      1.630245
   1.48742      1.659366      1.659368
   1.46807      1.686568      1.686570
   1.44873      1.711611      1.711613
   1.42939      1.734295      1.734297
   1.41004      1.754458      1.754460
   1.39070      1.771979      1.771981
   1.37135      1.786797      1.786799
   1.35201      1.798916      1.798918
   1.33266      1.808438      1.808440
   1.31332      1.815512      1.815514
   1.29397      1.820394      1.820396
   1.27463      1.823416      1.823418
   1.25528      1.824945      1.824946
   1.23594      1.823687      1.823689
   1.21659      1.818083      1.818084
   1.19725      1.812971      1.812973
   1.17790      1.808906      1.808908
   1.15856      1.806307      1.806308
   1.13921      1.805401      1.805402
   1.13921      1.805401      1.805402
   1.10571      1.803729      1.803731
   1.07220      1.798804      1.798806
   1.03869      1.791040      1.791042
   1.00519      1.781094      1.781096
   0.97168      1.769792      1.769794
   0.93818      1.758100      1.758102
   0.90467      1.747035      1.747037
   0.87116      1.737635      1.737636
   0.83766      1.730887      1.730888
   0.80415      1.726312      1.726313
   0.77064      1.665063      1.665064
   0.73714      1.608604      1.608606
   0.70363      1.558295      1.558296
   0.67013      1.515576      1.515577
   0.63662      1.481979      1.481980
   0.60311      1.459050      1.459051
   0.56961      1.448354      1.448355
   0.53610      1.451306      1.451307
   0.50259      1.469060      1.469061
   0.46909      1.502358      1.502359
   0.43558      1.551275      1.551276
   0.40208      1.615154      1.615155
   0.36857      1.692551      1.692552
   0.33506      1.781239      1.781240
   0.30156      1.878409      1.878411
   0.26805      1.980545      1.980572
   0.23454      2.082793      2.082677
   0.20104      2.144864      2.146785
   0.16753      2.185331      2.181988
   0.13403      2.207359      2.207272
   0.10052      2.227354      2.229201
   0.06701      2.245381      2.247707
   0.03351      2.264532      2.258322
   0.00000      2.259086      2.259086
 
# Band-Index:   29
   0.00000      2.260602      2.263778
   0.03351      2.268626      2.277901
   0.06701      2.271380      2.273030
   0.10052      2.253002      2.247229
   0.13403      2.221453      2.215509
   0.16753      2.187452      2.191143
   0.20104      2.151924      2.151979
   0.23454      2.106867      2.106788
   0.26805      2.058959      2.058791
   0.30156      2.011175      2.011177
   0.33506      1.966972      1.966977
   0.36857      1.928747      1.928747
   0.40208      1.898170      1.898171
   0.43558      1.876105      1.876106
   0.46909      1.862777      1.862777
   0.50259      1.857914      1.857915
   0.53610      1.860934      1.860935
   0.56961      1.842611      1.842612
   0.60311      1.810584      1.810585
   0.63662      1.783559      1.783560
   0.67013      1.761800      1.761801
   0.70363      1.745440      1.745441
   0.73714      1.734461      1.734462
   0.77064      1.728658      1.728659
   0.80415      1.727652      1.727653
   0.83766      1.777448      1.777450
   0.87116      1.779335      1.779337
   0.90467      1.783973      1.783974
   0.93818      1.790522      1.790523
   0.97168      1.798086      1.798088
   1.00519      1.805776      1.805777
   1.03869      1.812782      1.812784
   1.07220      1.818345      1.818346
   1.10571      1.821927      1.821928
   1.13921      1.823151      1.823152
   1.13921      1.823151      1.823152
   1.15856      1.823339      1.823340
   1.17790      1.823829      1.823831
   1.19725      1.824496      1.824497
   1.21659      1.825110      1.825112
   1.23594      1.825373      1.825375
   1.25528      1.825146      1.825148
   1.27463      1.823620      1.823621
   1.29397      1.820598      1.820599
   1.31332      1.815715      1.815717
   1.33266      1.808641      1.808642
   1.35201      1.799119      1.799121
   1.37135      1.787000      1.787001
   1.39070      1.772182      1.772184
   1.41004      1.754661      1.754663
   1.42939      1.734498      1.734500
   1.44873      1.711815      1.711817
   1.46807      1.686772      1.686774
   1.48742      1.659570      1.659572
   1.50676      1.630448      1.630450
   1.52611      1.599688      1.599690
   1.54545      1.567587      1.567589
   1.56480      1.534502      1.534504
   1.58414      1.500818      1.500820
   1.60349      1.466969      1.466971
   1.62283      1.433423      1.433425
   1.64218      1.400724      1.400726
   1.66152      1.369457      1.369459
   1.68087      1.340259      1.340261
   1.70021      1.313815      1.313817
   1.71956      1.290840      1.290842
   1.73890      1.272052      1.272054
   1.75825      1.258139      1.258141
   1.77759      1.249716      1.249718
   1.79694      1.247130      1.247132
   1.79694      1.247130      1.247132
   1.83563      1.261215      1.261217
   1.87432      1.300352      1.300354
   1.91301      1.361176      1.361178
   1.95170      1.438000      1.438002
   1.99039      1.524022      1.524024
   2.02908      1.612308      1.612310
   2.06776      1.696117      1.696119
   2.10645      1.768872      1.768873
   2.14514      1.823377      1.823379
   2.18383      1.850707      1.850708
   2.22252      1.841616      1.841617
   2.26121      1.797673      1.797674
   2.29990      1.736929      1.736930
   2.33859      1.677967      1.677968
   2.37728      1.631576      1.631577
   2.41597      1.602853      1.602854
   2.45466      1.593480      1.593481
   2.49335      1.602893      1.602894
   2.53204      1.628885      1.628886
   2.57073      1.668063      1.668063
   2.60942      1.716193      1.716194
   2.64811      1.768769      1.768769
   2.68680      1.822222      1.822223
   2.72549      1.875421      1.875421
   2.76418      1.929407      1.929402
   2.80287      1.985087      1.985078
   2.84156      2.041766      2.041776
   2.88025      2.097506      2.097479
   2.91894      2.151289      2.153207
   2.95763      2.196993      2.196873
   2.99632      2.236844      2.236748
   3.03501      2.267460      2.267461
   3.07370      2.268312      2.267301
   3.11239      2.263945      2.261263
 
# Band-Index:   30
   3.11239      2.293934      2.293934
   3.07370      2.286973      2.286960
   3.03501      2.272068      2.268179
   2.99632      2.241509      2.255575
   2.95763      2.199876      2.197739
   2.91894      2.163651      2.162040
   2.88025      2.097968      2.097655
   2.84156      2.041935      2.041941
   2.80287      1.985211      1.985213
   2.76418      1.929501      1.929501
   2.72549      1.875482      1.875483
   2.68680      1.822266      1.822267
   2.64811      1.768838      1.768838
   2.60942      1.716293      1.716294
   2.57073      1.668185      1.668185
   2.53204      1.629021      1.629022
   2.49335      1.603037      1.603037
   2.45466      1.593628      1.593629
   2.41597      1.603001      1.603002
   2.37728      1.631723      1.631724
   2.33859      1.678109      1.678110
   2.29990      1.737064      1.737065
   2.26121      1.797804      1.797805
   2.22252      1.841752      1.841753
   2.18383      1.850859      1.850860
   2.14514      1.823549      1.823551
   2.10645      1.769057      1.769059
   2.06776      1.696311      1.696313
   2.02908      1.612508      1.612510
   1.99039      1.524225      1.524227
   1.95170      1.438206      1.438208
   1.91301      1.361384      1.361386
   1.87432      1.300561      1.300563
   1.83563      1.261426      1.261428
   1.79694      1.247388      1.247390
   1.79694      1.247388      1.247390
   1.77759      1.251438      1.251440
   1.75825      1.261331      1.261334
   1.73890      1.276540      1.276542
   1.71956      1.296550      1.296552
   1.70021      1.320772      1.320774
   1.68087      1.348550      1.348552
   1.66152      1.379218      1.379220
   1.64218      1.412114      1.412116
   1.62283      1.446612      1.446614
   1.60349      1.482120      1.482122
   1.58414      1.518081      1.518083
   1.56480      1.553987      1.553989
   1.54545      1.589364      1.589366
   1.52611      1.623772      1.623774
   1.50676      1.656802      1.656804
   1.48742      1.688058      1.688060
   1.46807      1.717167      1.717169
   1.44873      1.743760      1.743762
   1.42939      1.767503      1.767505
   1.41004      1.788076      1.788078
   1.39070      1.805198      1.805199
   1.37135      1.818676      1.818678
   1.35201      1.828395      1.828397
   1.33266      1.834430      1.834432
   1.31332      1.837014      1.837016
   1.29397      1.836563      1.836565
   1.27463      1.833705      1.833707
   1.25528      1.829164      1.829166
   1.23594      1.825588      1.825590
   1.21659      1.825320      1.825321
   1.19725      1.824705      1.824707
   1.17790      1.824039      1.824041
   1.15856      1.823548      1.823550
   1.13921      1.823361      1.823362
   1.13921      1.823361      1.823362
   1.10571      1.822136      1.822138
   1.07220      1.818554      1.818556
   1.03869      1.812991      1.812993
   1.00519      1.805988      1.805990
   0.97168      1.798322      1.798323
   0.93818      1.790833      1.790834
   0.90467      1.784432      1.784434
   0.87116      1.779996      1.779997
   0.83766      1.778361      1.778363
   0.80415      1.779010      1.779011
   0.77064      1.784634      1.784636
   0.73714      1.794756      1.794757
   0.70363      1.809645      1.809646
   0.67013      1.829408      1.829409
   0.63662      1.854015      1.854016
   0.60311      1.883258      1.883259
   0.56961      1.871083      1.871084
   0.53610      1.879232      1.879233
   0.50259      1.893837      1.893838
   0.46909      1.901441      1.901442
   0.43558      1.916355      1.916356
   0.40208      1.938318      1.938319
   0.36857      1.966457      1.966457
   0.33506      1.999252      1.999251
   0.30156      2.034753      2.034768
   0.26805      2.071335      2.071340
   0.23454      2.108192      2.107981
   0.20104      2.162096      2.164071
   0.16753      2.193428      2.199655
   0.13403      2.232299      2.227958
   0.10052      2.264419      2.263421
   0.06701      2.280711      2.279480
   0.03351      2.289232      2.288697
   0.00000      2.293934      2.293934
 
# Band-Index:   31
   0.00000      2.294065      2.294050
   0.03351      2.294307      2.296643
   0.06701      2.283716      2.287202
   0.10052      2.315322      2.312015
   0.13403      2.351965      2.349932
   0.16753      2.297443      2.300156
   0.20104      2.204814      2.218611
   0.23454      2.175415      2.174085
   0.26805      2.175231      2.175196
   0.30156      2.190498      2.190728
   0.33506      2.161459      2.161462
   0.36857      2.110686      2.110684
   0.40208      2.060317      2.060317
   0.43558      2.011213      2.011213
   0.46909      1.964172      1.964172
   0.50259      1.919954      1.919954
   0.53610      1.893401      1.893402
   0.56961      1.899701      1.899702
   0.60311      1.887467      1.887468
   0.63662      1.858196      1.858197
   0.67013      1.832806      1.832807
   0.70363      1.812371      1.812372
   0.73714      1.796914      1.796915
   0.77064      1.786302      1.786303
   0.80415      1.780265      1.780267
   0.83766      1.791012      1.791014
   0.87116      1.857877      1.857879
   0.90467      1.925542      1.925543
   0.93818      1.992611      1.992613
   0.97168      2.057518      2.057519
   1.00519      2.118539      2.118541
   1.03869      2.173755      2.173757
   1.07220      2.221139      2.221141
   1.10571      2.258784      2.258786
   1.13921      2.285050      2.285052
   1.13921      2.285050      2.285052
   1.15856      2.285640      2.285643
   1.17790      2.287427      2.287429
   1.19725      2.290495      2.290497
   1.21659      2.294974      2.294976
   1.23594      2.301042      2.301043
   1.25528      2.308895      2.308898
   1.27463      2.318751      2.318754
   1.29397      2.330821      2.330818
   1.31332      2.345262      2.345264
   1.33266      2.362201      2.362203
   1.35201      2.381662      2.381663
   1.37135      2.403601      2.403607
   1.39070      2.427872      2.427869
   1.41004      2.454221      2.454223
   1.42939      2.482327      2.482329
   1.44873      2.511726      2.511727
   1.46807      2.541771      2.541774
   1.48742      2.571510      2.571516
   1.50676      2.599424      2.599427
   1.52611      2.622951      2.622952
   1.54545      2.638227      2.638226
   1.56480      2.641732      2.641736
   1.58414      2.634115      2.634116
   1.60349      2.619875      2.619873
   1.62283      2.603229      2.603231
   1.64218      2.586710      2.586707
   1.66152      2.571580      2.571581
   1.68087      2.558458      2.558459
   1.70021      2.547616      2.547616
   1.71956      2.539118      2.539118
   1.73890      2.532912      2.532912
   1.75825      2.528872      2.528873
   1.77759      2.526816      2.526816
   1.79694      2.526463      2.526464
   1.79694      2.526463      2.526463
   1.83563      2.529397      2.529396
   1.87432      2.537054      2.537055
   1.91301      2.544507      2.544507
   1.95170      2.548797      2.548797
   1.99039      2.545246      2.545247
   2.02908      2.515545      2.515546
   2.06776      2.430957      2.430959
   2.10645      2.349876      2.349878
   2.14514      2.284138      2.284140
   2.18383      2.233699      2.233700
   2.22252      2.174268      2.174270
   2.26121      2.132435      2.132437
   2.29990      2.104603      2.104605
   2.33859      2.078694      2.078696
   2.37728      2.048701      2.048703
   2.41597      2.016777      2.016779
   2.45466      1.991357      1.991358
   2.49335      1.967250      1.967250
   2.53204      1.949791      1.949791
   2.57073      1.942173      1.942174
   2.60942      1.946902      1.946903
   2.64811      1.965967      1.965968
   2.68680      1.999776      1.999777
   2.72549      2.045629      2.045629
   2.76418      2.098050      2.098053
   2.80287      2.118206      2.118266
   2.84156      2.126753      2.126789
   2.88025      2.145856      2.145700
   2.91894      2.219613      2.217733
   2.95763      2.322792      2.323915
   2.99632      2.328954      2.347865
   3.03501      2.291443      2.290832
   3.07370      2.292100      2.290544
   3.11239      2.294020      2.294053
 
# Band-Index:   32
   3.11239      2.294107      2.294108
   3.07370      2.302224      2.302220
   3.03501      2.325076      2.325064
   2.99632      2.361212      2.361195
   2.95763      2.366794      2.366838
   2.91894      2.312706      2.312809
   2.88025      2.257653      2.257645
   2.84156      2.204269      2.204264
   2.80287      2.151668      2.151626
   2.76418      2.098270      2.098167
   2.72549      2.045734      2.045735
   2.68680      1.999856      1.999856
   2.64811      1.966021      1.966021
   2.60942      1.946937      1.946938
   2.57073      1.942198      1.942198
   2.53204      1.949813      1.949813
   2.49335      1.967280      1.967281
   2.45466      1.991833      1.991834
   2.41597      2.020591      2.020592
   2.37728      2.050438      2.050439
   2.33859      2.078836      2.078838
   2.29990      2.104780      2.104782
   2.26121      2.132637      2.132639
   2.22252      2.174474      2.174476
   2.18383      2.241662      2.241663
   2.14514      2.328915      2.328917
   2.10645      2.417059      2.417060
   2.06776      2.486281      2.486283
   2.02908      2.527315      2.527316
   1.99039      2.545389      2.545388
   1.95170      2.548953      2.548954
   1.91301      2.544670      2.544671
   1.87432      2.537219      2.537219
   1.83563      2.530065      2.530065
   1.79694      2.526564      2.526564
   1.79694      2.526564      2.526564
   1.77759      2.526977      2.526977
   1.75825      2.529035      2.529035
   1.73890      2.533073      2.533074
   1.71956      2.539277      2.539278
   1.70021      2.547773      2.547774
   1.68087      2.558612      2.558611
   1.66152      2.571727      2.571728
   1.64218      2.586848      2.586848
   1.62283      2.603359      2.603359
   1.60349      2.619988      2.619988
   1.58414      2.634213      2.634213
   1.56480      2.641830      2.641834
   1.54545      2.638353      2.638354
   1.52611      2.623112      2.623113
   1.50676      2.599606      2.599605
   1.48742      2.571704      2.571707
   1.46807      2.541968      2.541969
   1.44873      2.511926      2.511933
   1.42939      2.482527      2.482529
   1.41004      2.454422      2.454427
   1.39070      2.428069      2.428070
   1.37135      2.403802      2.403806
   1.35201      2.381862      2.381864
   1.33266      2.362405      2.362405
   1.31332      2.345463      2.345465
   1.29397      2.331019      2.331020
   1.27463      2.318953      2.318955
   1.25528      2.309096      2.309098
   1.23594      2.301244      2.301245
   1.21659      2.295177      2.295179
   1.19725      2.290698      2.290700
   1.17790      2.287630      2.287632
   1.15856      2.285844      2.285846
   1.13921      2.285253      2.285255
   1.13921      2.285253      2.285255
   1.10571      2.299396      2.299398
   1.07220      2.301573      2.301575
   1.03869      2.292664      2.292666
   1.00519      2.274312      2.274314
   0.97168      2.248575      2.248577
   0.93818      2.217433      2.217434
   0.90467      2.182690      2.182692
   0.87116      2.145870      2.145872
   0.83766      2.108136      2.108138
   0.80415      2.070463      2.070464
   0.77064      2.033656      2.033657
   0.73714      1.998436      1.998437
   0.70363      1.965483      1.965484
   0.67013      1.935494      1.935496
   0.63662      1.909225      1.909226
   0.60311      1.888328      1.888329
   0.56961      1.916841      1.916842
   0.53610      1.954319      1.954319
   0.50259      1.995183      1.995184
   0.46909      2.038801      2.038802
   0.43558      2.084494      2.084495
   0.40208      2.131471      2.131471
   0.36857      2.178923      2.178923
   0.33506      2.214364      2.214264
   0.30156      2.211737      2.211769
   0.26805      2.235073      2.232219
   0.23454      2.259328      2.259245
   0.20104      2.297937      2.297314
   0.16753      2.346284      2.352193
   0.13403      2.371765      2.372452
   0.10052      2.343757      2.338543
   0.06701      2.313717      2.315569
   0.03351      2.298851      2.301022
   0.00000      2.294107      2.294107
 
# Band-Index:   33
   0.00000      2.334939      2.302972
   0.03351      2.310448      2.309409
   0.06701      2.326718      2.335805
   0.10052      2.359940      2.352565
   0.13403      2.382526      2.376495
   0.16753      2.379091      2.375467
   0.20104      2.339540      2.337968
   0.23454      2.286827      2.286728
   0.26805      2.257957      2.252067
   0.30156      2.216650      2.216597
   0.33506      2.215383      2.215384
   0.36857      2.194608      2.194582
   0.40208      2.145015      2.145008
   0.43558      2.096154      2.096153
   0.46909      2.048798      2.048799
   0.50259      2.003697      2.003697
   0.53610      1.961551      1.961551
   0.56961      1.922920      1.922921
   0.60311      1.912118      1.912119
   0.63662      1.929970      1.929971
   0.67013      1.952547      1.952548
   0.70363      1.979137      1.979138
   0.73714      2.009074      2.009075
   0.77064      2.041705      2.041706
   0.80415      2.076376      2.076377
   0.83766      2.112423      2.112425
   0.87116      2.149179      2.149180
   0.90467      2.185830      2.185832
   0.93818      2.221463      2.221465
   0.97168      2.254964      2.254966
   1.00519      2.285097      2.285099
   1.03869      2.310542      2.310544
   1.07220      2.329930      2.329932
   1.10571      2.342104      2.342106
   1.13921      2.346255      2.346257
   1.13921      2.346255      2.346257
   1.15856      2.346649      2.346652
   1.17790      2.347880      2.347882
   1.19725      2.350102      2.350104
   1.21659      2.353571      2.353573
   1.23594      2.358633      2.358635
   1.25528      2.365725      2.365731
   1.27463      2.375320      2.375324
   1.29397      2.387899      2.387897
   1.31332      2.403861      2.403862
   1.33266      2.423492      2.423502
   1.35201      2.446896      2.446887
   1.37135      2.473933      2.473946
   1.39070      2.504316      2.504318
   1.41004      2.537554      2.537551
   1.42939      2.572957      2.572962
   1.44873      2.609674      2.609689
   1.46807      2.646522      2.646526
   1.48742      2.681787      2.681778
   1.50676      2.712569      2.712574
   1.52611      2.734038      2.734038
   1.54545      2.740098      2.740102
   1.56480      2.729247      2.729277
   1.58414      2.707295      2.707295
   1.60349      2.680838      2.680840
   1.62283      2.653807      2.653806
   1.64218      2.628168      2.628168
   1.66152      2.604899      2.604899
   1.68087      2.584467      2.584467
   1.70021      2.567114      2.567115
   1.71956      2.552924      2.552926
   1.73890      2.541882      2.541883
   1.75825      2.533908      2.533908
   1.77759      2.528874      2.528874
   1.79694      2.526746      2.526747
   1.79694      2.526746      2.526747
   1.83563      2.530239      2.530239
   1.87432      2.540155      2.540155
   1.91301      2.555608      2.555608
   1.95170      2.570050      2.570050
   1.99039      2.567542      2.567542
   2.02908      2.527425      2.527426
   2.06776      2.486347      2.486347
   2.10645      2.417144      2.417145
   2.14514      2.329057      2.329059
   2.18383      2.241848      2.241850
   2.22252      2.193123      2.193124
   2.26121      2.156539      2.156541
   2.29990      2.120457      2.120459
   2.33859      2.084096      2.084097
   2.37728      2.050553      2.050554
   2.41597      2.020671      2.020672
   2.45466      1.991903      1.991904
   2.49335      1.975606      1.975607
   2.53204      1.972029      1.972030
   2.57073      1.982216      1.982217
   2.60942      2.006292      2.006293
   2.64811      2.042669      2.042670
   2.68680      2.087129      2.087130
   2.72549      2.119842      2.119849
   2.76418      2.118492      2.118457
   2.80287      2.151945      2.152012
   2.84156      2.204441      2.204457
   2.88025      2.260923      2.258756
   2.91894      2.325272      2.352220
   2.95763      2.370438      2.370397
   2.99632      2.383982      2.378635
   3.03501      2.334199      2.337546
   3.07370      2.305591      2.304321
   3.11239      2.299578      2.308768
 
# Band-Index:   34
   3.11239      2.501220      2.501220
   3.07370      2.488644      2.488658
   3.03501      2.460885      2.460874
   2.99632      2.419200      2.419418
   2.95763      2.397294      2.393779
   2.91894      2.384727      2.384721
   2.88025      2.344613      2.344592
   2.84156      2.302397      2.302496
   2.80287      2.265511      2.265549
   2.76418      2.214442      2.214193
   2.72549      2.166119      2.166119
   2.68680      2.166031      2.166015
   2.64811      2.193886      2.193887
   2.60942      2.231831      2.231833
   2.57073      2.267512      2.267514
   2.53204      2.292867      2.292869
   2.49335      2.321115      2.321115
   2.45466      2.351212      2.351212
   2.41597      2.382508      2.382509
   2.37728      2.414906      2.414905
   2.33859      2.448726      2.448727
   2.29990      2.484483      2.484483
   2.26121      2.522360      2.522361
   2.22252      2.562015      2.562015
   2.18383      2.603095      2.603098
   2.14514      2.646789      2.646793
   2.10645      2.697911      2.697909
   2.06776      2.692809      2.692809
   2.02908      2.690890      2.690889
   1.99039      2.727036      2.727035
   1.95170      2.812899      2.812897
   1.91301      2.910878      2.910880
   1.87432      3.000553      3.000552
   1.83563      3.072486      3.072478
   1.79694      3.120924      3.120925
   1.79694      3.120928      3.120928
   1.77759      3.109604      3.109577
   1.75825      3.093638      3.093617
   1.73890      3.073621      3.073607
   1.71956      3.050114      3.050101
   1.70021      3.023701      3.023709
   1.68087      2.995041      2.995051
   1.66152      2.964845      2.964846
   1.64218      2.933943      2.933943
   1.62283      2.903504      2.903511
   1.60349      2.875301      2.875299
   1.58414      2.852204      2.852211
   1.56480      2.838860      2.838872
   1.54545      2.840027      2.840018
   1.52611      2.856605      2.856616
   1.50676      2.885334      2.885321
   1.48742      2.922396      2.922356
   1.46807      2.965278      2.965307
   1.44873      3.012538      3.012557
   1.42939      3.063223      3.063092
   1.41004      3.116056      3.116050
   1.39070      3.170808      3.170780
   1.37135      3.226411      3.226459
   1.35201      3.282172      3.282086
   1.33266      3.336874      3.336821
   1.31332      3.389420      3.389448
   1.29397      3.411577      3.419621
   1.27463      3.389123      3.387364
   1.25528      3.360021      3.360606
   1.23594      3.343512      3.343658
   1.21659      3.319111      3.319002
   1.19725      3.304177      3.303183
   1.17790      3.292193      3.293670
   1.15856      3.285789      3.286383
   1.13921      3.284072      3.286860
   1.13921      3.283468      3.284692
   1.10571      3.280661      3.281738
   1.07220      3.273097      3.273072
   1.03869      3.259325      3.259624
   1.00519      3.240161      3.240286
   0.97168      3.215242      3.215314
   0.93818      3.182433      3.183020
   0.90467      3.145760      3.143625
   0.87116      3.097550      3.097660
   0.83766      3.045380      3.045731
   0.80415      2.986297      2.986882
   0.77064      2.922921      2.922063
   0.73714      2.853476      2.853386
   0.70363      2.781397      2.781380
   0.67013      2.707457      2.707445
   0.63662      2.633093      2.633070
   0.60311      2.559829      2.559837
   0.56961      2.489364      2.489359
   0.53610      2.423352      2.423352
   0.50259      2.363539      2.363540
   0.46909      2.311608      2.311609
   0.43558      2.269256      2.269257
   0.40208      2.238117      2.238112
   0.36857      2.219755      2.219722
   0.33506      2.219916      2.219890
   0.30156      2.226023      2.225926
   0.26805      2.277421      2.261251
   0.23454      2.307779      2.307342
   0.20104      2.354871      2.354079
   0.16753      2.385493      2.385813
   0.13403      2.387163      2.387156
   0.10052      2.434302      2.434775
   0.06701      2.465691      2.467384
   0.03351      2.490191      2.490006
   0.00000      2.501220      2.501220
 
# Band-Index:   35
   0.00000      2.501293      2.501385
   0.03351      2.497665      2.496175
   0.06701      2.481301      2.479004
   0.10052      2.451071      2.451271
   0.13403      2.415727      2.392340
   0.16753      2.394996      2.395134
   0.20104      2.395807      2.398781
   0.23454      2.357125      2.353906
   0.26805      2.315472      2.316502
   0.30156      2.271502      2.271726
   0.33506      2.225905      2.225906
   0.36857      2.224381      2.224347
   0.40208      2.246449      2.246434
   0.43558      2.279886      2.279884
   0.46909      2.323784      2.323784
   0.50259      2.377042      2.377042
   0.53610      2.438429      2.438429
   0.56961      2.506660      2.506645
   0.60311      2.580278      2.580278
   0.63662      2.657954      2.657953
   0.67013      2.738311      2.738297
   0.70363      2.820001      2.820019
   0.73714      2.902454      2.901692
   0.77064      2.983088      2.982024
   0.80415      3.060834      3.060288
   0.83766      3.134773      3.135918
   0.87116      3.204545      3.204448
   0.90467      3.282283      3.269543
   0.93818      3.327741      3.332190
   0.97168      3.381552      3.380947
   1.00519      3.426229      3.426983
   1.03869      3.464594      3.465212
   1.07220      3.496348      3.509976
   1.10571      3.524149      3.524567
   1.13921      3.542934      3.542923
   1.13921      3.542833      3.542905
   1.15856      3.543564      3.543686
   1.17790      3.545522      3.545470
   1.19725      3.547146      3.547197
   1.21659      3.545700      3.545594
   1.23594      3.536229      3.536208
   1.25528      3.514648      3.514693
   1.27463      3.480953      3.480924
   1.29397      3.438269      3.438134
   1.31332      3.410847      3.392996
   1.33266      3.342053      3.342329
   1.35201      3.282888      3.291427
   1.37135      3.228002      3.227417
   1.39070      3.172315      3.171113
   1.41004      3.116930      3.116600
   1.42939      3.063258      3.063914
   1.44873      3.013065      3.013327
   1.46807      2.965465      2.965667
   1.48742      2.922601      2.922544
   1.50676      2.885541      2.885481
   1.52611      2.856761      2.856774
   1.54545      2.840135      2.840136
   1.56480      2.838957      2.839007
   1.58414      2.852315      2.852316
   1.60349      2.875416      2.875417
   1.62283      2.903651      2.903650
   1.64218      2.934126      2.934103
   1.66152      2.965032      2.965001
   1.68087      2.995208      2.995216
   1.70021      3.023873      3.023875
   1.71956      3.050279      3.050275
   1.73890      3.073785      3.073779
   1.75825      3.093823      3.093794
   1.77759      3.109760      3.109755
   1.79694      3.121078      3.120992
   1.79694      3.120990      3.120990
   1.83563      3.128166      3.128155
   1.87432      3.112419      3.112421
   1.91301      3.072893      3.072872
   1.95170      3.011325      3.011306
   1.99039      2.932740      2.932720
   2.02908      2.846040      2.846038
   2.06776      2.764094      2.764096
   2.10645      2.697965      2.697966
   2.14514      2.646893      2.646894
   2.18383      2.603225      2.603226
   2.22252      2.562152      2.562155
   2.26121      2.522497      2.522491
   2.29990      2.484596      2.484596
   2.33859      2.448815      2.448819
   2.37728      2.414966      2.414965
   2.41597      2.382544      2.382544
   2.45466      2.351222      2.351223
   2.49335      2.321131      2.321131
   2.53204      2.292902      2.292903
   2.57073      2.267565      2.267567
   2.60942      2.246442      2.246445
   2.64811      2.231228      2.231230
   2.68680      2.223667      2.223667
   2.72549      2.225693      2.225727
   2.76418      2.239368      2.239266
   2.80287      2.265766      2.265778
   2.84156      2.302577      2.303607
   2.88025      2.352512      2.346360
   2.91894      2.402508      2.414990
   2.95763      2.402018      2.402030
   2.99632      2.420143      2.420126
   3.03501      2.468530      2.475949
   3.07370      2.492042      2.495110
   3.11239      2.501347      2.501302
 
# Band-Index:   36
   3.11239      2.501392      2.501393
   3.07370      2.500111      2.500108
   3.03501      2.487695      2.487688
   2.99632      2.449176      2.457883
   2.95763      2.448082      2.424240
   2.91894      2.440437      2.458448
   2.88025      2.400518      2.386353
   2.84156      2.329579      2.329863
   2.80287      2.273528      2.276485
   2.76418      2.239565      2.239401
   2.72549      2.225816      2.225822
   2.68680      2.223772      2.223771
   2.64811      2.231315      2.231316
   2.60942      2.246509      2.246510
   2.57073      2.276671      2.276672
   2.53204      2.326509      2.326507
   2.49335      2.379595      2.379595
   2.45466      2.434173      2.434175
   2.41597      2.488400      2.488395
   2.37728      2.540310      2.540308
   2.33859      2.587895      2.587898
   2.29990      2.629266      2.629269
   2.26121      2.662630      2.662631
   2.22252      2.686650      2.686656
   2.18383      2.700657      2.700657
   2.14514      2.704932      2.704933
   2.10645      2.701051      2.701051
   2.06776      2.764155      2.764167
   2.02908      2.846157      2.846155
   1.99039      2.932870      2.932871
   1.95170      3.011469      3.011468
   1.91301      3.073055      3.073045
   1.87432      3.112592      3.112595
   1.83563      3.128351      3.128332
   1.79694      3.121225      3.121227
   1.79694      3.121227      3.121222
   1.77759      3.135581      3.135588
   1.75825      3.143439      3.143442
   1.73890      3.144714      3.144720
   1.71956      3.139680      3.139643
   1.70021      3.128634      3.128653
   1.68087      3.112252      3.112283
   1.66152      3.091181      3.091190
   1.64218      3.066261      3.066292
   1.62283      3.038684      3.038722
   1.60349      3.010003      3.010033
   1.58414      2.982717      2.982722
   1.56480      2.961392      2.961628
   1.54545      2.952979      2.952941
   1.52611      2.963764      2.963846
   1.50676      2.992644      2.992802
   1.48742      3.033798      3.033786
   1.46807      3.082652      3.083019
   1.44873      3.137220      3.136359
   1.42939      3.193221      3.194162
   1.41004      3.251987      3.252568
   1.39070      3.313360      3.311210
   1.37135      3.382977      3.375303
   1.35201      3.429382      3.438851
   1.33266      3.439236      3.447788
   1.31332      3.431704      3.437477
   1.29397      3.462409      3.461212
   1.27463      3.544155      3.493577
   1.25528      3.519376      3.541926
   1.23594      3.548191      3.545103
   1.21659      3.558937      3.565285
   1.19725      3.581393      3.570278
   1.17790      3.558462      3.556067
   1.15856      3.571338      3.597000
   1.13921      3.561332      3.556086
   1.13921      3.550254      3.561917
   1.10571      3.565989      3.564441
   1.07220      3.582490      3.565386
   1.03869      3.569236      3.569066
   1.00519      3.588570      3.565160
   0.97168      3.597005      3.556311
   0.93818      3.525529      3.528954
   0.90467      3.499472      3.492257
   0.87116      3.449105      3.456064
   0.83766      3.413059      3.425635
   0.80415      3.338184      3.338292
   0.77064      3.275506      3.266957
   0.73714      3.205145      3.190682
   0.70363      3.107760      3.109434
   0.67013      3.018308      3.017988
   0.63662      2.925396      2.925474
   0.60311      2.830439      2.830486
   0.56961      2.735043      2.734959
   0.53610      2.640848      2.640854
   0.50259      2.550196      2.550161
   0.46909      2.464974      2.464991
   0.43558      2.387408      2.387404
   0.40208      2.319649      2.319520
   0.36857      2.263189      2.263229
   0.33506      2.243989      2.244058
   0.30156      2.292445      2.299356
   0.26805      2.351961      2.345149
   0.23454      2.389972      2.382570
   0.20104      2.439950      2.447042
   0.16753      2.419102      2.412292
   0.13403      2.426097      2.424342
   0.10052      2.455948      2.455900
   0.06701      2.490827      2.489014
   0.03351      2.500699      2.501270
   0.00000      2.501392      2.501393
 
# Band-Index:   37
   0.00000      2.523359      2.529717
   0.03351      2.523278      2.526475
   0.06701      2.499394      2.503814
   0.10052      2.481332      2.477319
   0.13403      2.448525      2.435494
   0.16753      2.454312      2.452597
   0.20104      2.478924      2.488380
   0.23454      2.529118      2.524408
   0.26805      2.615797      2.602682
   0.30156      2.662893      2.664162
   0.33506      2.742131      2.750097
   0.36857      2.825021      2.828451
   0.40208      2.891817      2.889863
   0.43558      2.975652      2.966988
   0.46909      3.040935      3.040359
   0.50259      3.120317      3.112687
   0.53610      3.188800      3.182192
   0.56961      3.249020      3.247934
   0.60311      3.310284      3.315655
   0.63662      3.366760      3.368750
   0.67013      3.422835      3.426975
   0.70363      3.476763      3.468565
   0.73714      3.514363      3.517590
   0.77064      3.554224      3.553277
   0.80415      3.595479      3.590697
   0.83766      3.620150      3.622102
   0.87116      3.653004      3.651881
   0.90467      3.675718      3.673139
   0.93818      3.693801      3.694565
   0.97168      3.710882      3.709029
   1.00519      3.723333      3.721960
   1.03869      3.733084      3.732865
   1.07220      3.739693      3.740145
   1.10571      3.744413      3.744593
   1.13921      3.745576      3.745613
   1.13921      3.745632      3.745731
   1.15856      3.742452      3.742368
   1.17790      3.733227      3.733211
   1.19725      3.719668      3.719563
   1.21659      3.705359      3.705401
   1.23594      3.695835      3.695840
   1.25528      3.695920      3.695908
   1.27463      3.706485      3.706543
   1.29397      3.670982      3.703181
   1.31332      3.626775      3.646075
   1.33266      3.594503      3.598560
   1.35201      3.607621      3.613186
   1.37135      3.631563      3.623117
   1.39070      3.669878      3.685588
   1.41004      3.700213      3.706602
   1.42939      3.763932      3.805344
   1.44873      3.828608      3.893797
   1.46807      3.841547      3.848805
   1.48742      3.934214      3.896375
   1.50676      4.005867      3.965532
   1.52611      3.980510      4.024310
   1.54545      4.027437      4.030034
   1.56480      4.110142      4.132273
   1.58414      4.112994      4.114264
   1.60349      4.159226      4.156095
   1.62283      4.194839      4.225371
   1.64218      4.234746      4.252867
   1.66152      4.281049      4.270729
   1.68087      4.350078      4.336566
   1.70021      4.341935      4.326440
   1.71956      4.355496      4.355749
   1.73890      4.368626      4.389003
   1.75825      4.396193      4.385255
   1.77759      4.405682      4.407438
   1.79694      4.412279      4.412262
   1.79694      4.412243      4.412250
   1.83563      4.396335      4.396310
   1.87432      4.370771      4.370873
   1.91301      4.338580      4.338490
   1.95170      4.301611      4.301518
   1.99039      4.261995      4.262014
   2.02908      4.221469      4.221356
   2.06776      4.181519      4.181538
   2.10645      4.143025      4.143014
   2.14514      4.106478      4.106442
   2.18383      4.070934      4.071022
   2.22252      4.035192      4.035224
   2.26121      3.996989      3.997033
   2.29990      3.954312      3.954377
   2.33859      3.905021      3.905078
   2.37728      3.847547      3.847478
   2.41597      3.780719      3.780671
   2.45466      3.704307      3.704242
   2.49335      3.618406      3.618398
   2.53204      3.523986      3.523896
   2.57073      3.422038      3.421956
   2.60942      3.314206      3.314300
   2.64811      3.202630      3.202598
   2.68680      3.087164      3.087502
   2.72549      2.968045      2.968610
   2.76418      2.850993      2.854064
   2.80287      2.736332      2.756959
   2.84156      2.630339      2.630845
   2.88025      2.538616      2.542694
   2.91894      2.465718      2.486044
   2.95763      2.450737      2.450736
   2.99632      2.466981      2.466974
   3.03501      2.488150      2.489103
   3.07370      2.511721      2.508981
   3.11239      2.513522      2.513187
 
# Band-Index:   38
   3.11239      2.550237      2.550238
   3.07370      2.535167      2.538539
   3.03501      2.522387      2.521024
   2.99632      2.489068      2.502560
   2.95763      2.473684      2.468170
   2.91894      2.495680      2.495550
   2.88025      2.571932      2.571952
   2.84156      2.661180      2.661164
   2.80287      2.759848      2.759866
   2.76418      2.865545      2.865555
   2.72549      2.976065      2.976101
   2.68680      3.089155      3.089183
   2.64811      3.204823      3.207422
   2.60942      3.321775      3.326132
   2.57073      3.442991      3.447848
   2.53204      3.544373      3.536591
   2.49335      3.652047      3.651225
   2.45466      3.728035      3.720170
   2.41597      3.836460      3.830542
   2.37728      3.905227      3.896671
   2.33859      3.932216      3.916756
   2.29990      3.971296      3.973151
   2.26121      4.026335      4.016696
   2.22252      4.076876      4.066670
   2.18383      4.079674      4.168918
   2.14514      4.132354      4.162470
   2.10645      4.236812      4.169348
   2.06776      4.195340      4.261707
   2.02908      4.244049      4.306475
   1.99039      4.281784      4.279992
   1.95170      4.309956      4.347292
   1.91301      4.362584      4.392519
   1.87432      4.374551      4.395667
   1.83563      4.419464      4.413104
   1.79694      4.412384      4.412457
   1.79694      4.412523      4.412409
   1.77759      4.416117      4.416194
   1.75825      4.416847      4.416878
   1.73890      4.414182      4.414097
   1.71956      4.407787      4.407820
   1.70021      4.398111      4.397999
   1.68087      4.384662      4.384597
   1.66152      4.367491      4.367656
   1.64218      4.346992      4.347005
   1.62283      4.323170      4.323195
   1.60349      4.296081      4.296088
   1.58414      4.266129      4.266132
   1.56480      4.233515      4.233586
   1.54545      4.198603      4.198604
   1.52611      4.161950      4.161920
   1.50676      4.123658      4.123600
   1.48742      4.084138      4.084143
   1.46807      4.043841      4.043877
   1.44873      4.003454      4.003434
   1.42939      3.963030      3.963016
   1.41004      3.923206      3.923218
   1.39070      3.884567      3.884515
   1.37135      3.847296      3.847257
   1.35201      3.812037      3.812057
   1.33266      3.779443      3.779540
   1.31332      3.750272      3.750192
   1.29397      3.725368      3.725396
   1.27463      3.712908      3.718382
   1.25528      3.729650      3.761798
   1.23594      3.809148      3.708168
   1.21659      3.742594      3.752781
   1.19725      3.737336      3.824896
   1.17790      3.741252      3.887073
   1.15856      3.876929      3.912306
   1.13921      3.901925      3.843351
   1.13921      3.786893      3.872106
   1.10571      3.772778      3.865204
   1.07220      3.879890      3.785520
   1.03869      3.751695      3.746368
   1.00519      3.734286      3.754683
   0.97168      3.792999      3.749738
   0.93818      3.749035      3.711792
   0.90467      3.747561      3.702380
   0.87116      3.785046      3.676776
   0.83766      3.667384      3.641805
   0.80415      3.701721      3.708409
   0.77064      3.634668      3.565332
   0.73714      3.628651      3.544619
   0.70363      3.499126      3.515932
   0.67013      3.453736      3.436013
   0.63662      3.433291      3.383925
   0.60311      3.327729      3.375786
   0.56961      3.320695      3.278994
   0.53610      3.213537      3.199316
   0.50259      3.161805      3.131095
   0.46909      3.085164      3.072788
   0.43558      2.999185      2.997224
   0.40208      2.941459      2.911258
   0.36857      2.868936      2.875121
   0.33506      2.776030      2.764314
   0.30156      2.694799      2.696937
   0.26805      2.642196      2.640646
   0.23454      2.563279      2.565710
   0.20104      2.498976      2.507415
   0.16753      2.464169      2.464740
   0.13403      2.493417      2.485956
   0.10052      2.515058      2.515420
   0.06701      2.514727      2.526275
   0.03351      2.542556      2.545548
   0.00000      2.550237      2.550238
